ALV-7004 or ALV-7004/FAST Data
Date :	"3/27/2010"
Time :	"12:04:49 PM"
Samplename : 	"BSA 4 g/l in YCl3 8.3mM"
SampMemo(0) : 	""
SampMemo(1) : 	""
SampMemo(2) : 	""
SampMemo(3) : 	""
SampMemo(4) : 	""
SampMemo(5) : 	""
SampMemo(6) : 	""
SampMemo(7) : 	""
SampMemo(8) : 	""
SampMemo(9) : 	""
Temperature [K] :	     295.73688
Viscosity [cp]  :	       0.94153
Refractive Index:	       1.33200
Wavelength [nm] :	     632.80000
Angle [°]       :	     130.00000
Duration [s]    :	        50
Runs            :	         1
Mode            :	"C-CH0/1+1/0"
MeanCR0 [kHz]   :	     285.20103
MeanCR1 [kHz]   :	     340.11191
MeanCR2 [kHz]   :	       0.00000
MeanCR3 [kHz]   :	       0.00000

"Correlation"
  3.12500E-006	  9.72091E-001	  9.57601E-001	 -3.00000E+000	 -3.00000E+000
  6.25000E-006	  9.49172E-001	  9.23277E-001	 -3.00000E+000	 -3.00000E+000
  9.37500E-006	  9.49700E-001	  9.38491E-001	 -3.00000E+000	 -3.00000E+000
  1.25000E-005	  9.30763E-001	  9.05370E-001	 -3.00000E+000	 -3.00000E+000
  1.56250E-005	  9.79892E-001	  9.92328E-001	 -3.00000E+000	 -3.00000E+000
  1.87500E-005	  9.97160E-001	  1.00311E+000	 -3.00000E+000	 -3.00000E+000
  2.18750E-005	  9.51515E-001	  9.54957E-001	 -3.00000E+000	 -3.00000E+000
  2.50000E-005	  9.88415E-001	  9.82998E-001	 -3.00000E+000	 -3.00000E+000
  2.81250E-005	  9.65380E-001	  9.74137E-001	 -3.00000E+000	 -3.00000E+000
  3.12500E-005	  9.91537E-001	  9.79964E-001	 -3.00000E+000	 -3.00000E+000
  3.43750E-005	  9.46094E-001	  9.33263E-001	 -3.00000E+000	 -3.00000E+000
  3.75000E-005	  9.80522E-001	  9.57226E-001	 -3.00000E+000	 -3.00000E+000
  4.06250E-005	  9.72916E-001	  9.93110E-001	 -3.00000E+000	  1.33892E+000
  4.37500E-005	  9.53505E-001	  9.81486E-001	 -3.00000E+000	  1.39744E+000
  4.68750E-005	  9.94413E-001	  9.62639E-001	 -3.00000E+000	 -9.20576E-001
  5.00000E-005	  1.00547E+000	  9.91996E-001	 -3.00000E+000	  2.70191E+000
  5.62500E-005	  9.66232E-001	  9.66663E-001	 -3.00000E+000	  1.27822E+000
  6.25000E-005	  9.67595E-001	  9.49108E-001	 -3.00000E+000	  1.34669E+000
  6.87500E-005	  9.67836E-001	  9.75393E-001	 -2.88491E+000	  1.53618E+000
  7.50000E-005	  9.69743E-001	  9.68582E-001	  2.49571E+000	  1.02819E+000
  8.12500E-005	  9.87563E-001	  9.63756E-001	  1.30865E+000	  1.07234E+000
  8.75000E-005	  9.76576E-001	  9.85915E-001	  1.32966E+000	  1.04797E+000
  9.37500E-005	  9.77264E-001	  9.84095E-001	  1.24797E+000	  1.05554E+000
  1.00000E-004	  9.63490E-001	  9.70401E-001	  1.11952E+000	  1.01709E+000
  1.12500E-004	  9.68005E-001	  9.65625E-001	  1.14020E+000	  1.03292E+000
  1.25000E-004	  9.66142E-001	  9.61539E-001	  1.04979E+000	  1.03199E+000
  1.37500E-004	  9.71216E-001	  9.66571E-001	  9.82244E-001	  1.02473E+000
  1.50000E-004	  9.64977E-001	  9.68922E-001	  9.61603E-001	  1.00991E+000
  1.62500E-004	  9.72773E-001	  9.81923E-001	  9.64241E-001	  1.01918E+000
  1.75000E-004	  9.69055E-001	  9.66107E-001	  9.60050E-001	  9.98824E-001
  1.87500E-004	  9.57667E-001	  9.54615E-001	  9.59490E-001	  1.01211E+000
  2.00000E-004	  9.61720E-001	  9.56351E-001	  9.49371E-001	  1.00184E+000
  2.25000E-004	  9.57208E-001	  9.50292E-001	  9.62253E-001	  9.95045E-001
  2.50000E-004	  9.59077E-001	  9.66730E-001	  9.50067E-001	  1.00555E+000
  2.75000E-004	  9.52349E-001	  9.52160E-001	  9.50279E-001	  9.96502E-001
  3.00000E-004	  9.51876E-001	  9.52764E-001	  9.54304E-001	  9.92519E-001
  3.25000E-004	  9.54171E-001	  9.49775E-001	  9.48672E-001	  9.92116E-001
  3.50000E-004	  9.52331E-001	  9.55452E-001	  9.56695E-001	  9.96259E-001
  3.75000E-004	  9.58139E-001	  9.59295E-001	  9.54430E-001	  9.81558E-001
  4.00000E-004	  9.53540E-001	  9.52015E-001	  9.54786E-001	  9.77362E-001
  4.50000E-004	  9.41197E-001	  9.47001E-001	  9.51914E-001	  9.80344E-001
  5.00000E-004	  9.43280E-001	  9.37907E-001	  9.45018E-001	  9.75056E-001
  5.50000E-004	  9.40139E-001	  9.40809E-001	  9.43429E-001	  9.74509E-001
  6.00000E-004	  9.42362E-001	  9.37084E-001	  9.46651E-001	  9.69453E-001
  6.50000E-004	  9.37079E-001	  9.34513E-001	  9.48344E-001	  9.57731E-001
  7.00000E-004	  9.33367E-001	  9.35818E-001	  9.42008E-001	  9.55728E-001
  7.50000E-004	  9.38982E-001	  9.37390E-001	  9.40254E-001	  9.52560E-001
  8.00000E-004	  9.30341E-001	  9.27712E-001	  9.35061E-001	  9.52558E-001
  9.00000E-004	  9.23638E-001	  9.22925E-001	  9.29960E-001	  9.43624E-001
  1.00000E-003	  9.15542E-001	  9.16245E-001	  9.24616E-001	  9.39249E-001
  1.10000E-003	  9.09145E-001	  9.08062E-001	  9.13419E-001	  9.32126E-001
  1.20000E-003	  9.04350E-001	  9.01412E-001	  9.13851E-001	  9.25004E-001
  1.30000E-003	  8.99754E-001	  8.99771E-001	  9.03994E-001	  9.18620E-001
  1.40000E-003	  8.95292E-001	  8.89910E-001	  9.00361E-001	  9.20096E-001
  1.50000E-003	  8.89168E-001	  8.86339E-001	  8.94154E-001	  9.09148E-001
  1.60000E-003	  8.83234E-001	  8.82417E-001	  8.87679E-001	  9.02822E-001
  1.80000E-003	  8.73153E-001	  8.72309E-001	  8.76376E-001	  8.91651E-001
  2.00000E-003	  8.61792E-001	  8.61544E-001	  8.63568E-001	  8.79552E-001
  2.20000E-003	  8.49548E-001	  8.48629E-001	  8.51881E-001	  8.68665E-001
  2.40000E-003	  8.42448E-001	  8.40960E-001	  8.44010E-001	  8.58448E-001
  2.60000E-003	  8.28275E-001	  8.28241E-001	  8.33331E-001	  8.51324E-001
  2.80000E-003	  8.19709E-001	  8.18025E-001	  8.22975E-001	  8.39247E-001
  3.00000E-003	  8.09029E-001	  8.08027E-001	  8.16446E-001	  8.25508E-001
  3.20000E-003	  8.00084E-001	  7.99054E-001	  8.04154E-001	  8.16302E-001
  3.60000E-003	  7.80771E-001	  7.80492E-001	  7.88540E-001	  7.99714E-001
  4.00000E-003	  7.59588E-001	  7.57637E-001	  7.65769E-001	  7.76424E-001
  4.40000E-003	  7.41511E-001	  7.39050E-001	  7.47747E-001	  7.55152E-001
  4.80000E-003	  7.25043E-001	  7.22999E-001	  7.29480E-001	  7.39301E-001
  5.20000E-003	  7.07922E-001	  7.07021E-001	  7.13167E-001	  7.22718E-001
  5.60000E-003	  6.88486E-001	  6.88004E-001	  6.94605E-001	  7.04145E-001
  6.00000E-003	  6.71411E-001	  6.71723E-001	  6.79188E-001	  6.86368E-001
  6.40000E-003	  6.55479E-001	  6.54570E-001	  6.60453E-001	  6.69667E-001
  7.20000E-003	  6.24024E-001	  6.24588E-001	  6.30167E-001	  6.36752E-001
  8.00000E-003	  5.94023E-001	  5.93129E-001	  5.99857E-001	  6.05090E-001
  8.80000E-003	  5.66740E-001	  5.66653E-001	  5.69910E-001	  5.78398E-001
  9.60000E-003	  5.38765E-001	  5.37259E-001	  5.43123E-001	  5.48999E-001
  1.04000E-002	  5.12437E-001	  5.12522E-001	  5.16674E-001	  5.23823E-001
  1.12000E-002	  4.87872E-001	  4.87833E-001	  4.93557E-001	  4.98230E-001
  1.20000E-002	  4.64524E-001	  4.64537E-001	  4.67946E-001	  4.73571E-001
  1.28000E-002	  4.42793E-001	  4.42897E-001	  4.46840E-001	  4.52103E-001
  1.44000E-002	  4.01633E-001	  4.01531E-001	  4.05147E-001	  4.09771E-001
  1.60000E-002	  3.63851E-001	  3.63092E-001	  3.68615E-001	  3.73082E-001
  1.76000E-002	  3.29868E-001	  3.30184E-001	  3.33557E-001	  3.37364E-001
  1.92000E-002	  3.01013E-001	  3.00057E-001	  3.03111E-001	  3.05692E-001
  2.08000E-002	  2.72888E-001	  2.72497E-001	  2.76712E-001	  2.77983E-001
  2.24000E-002	  2.46926E-001	  2.47259E-001	  2.49526E-001	  2.52179E-001
  2.40000E-002	  2.24627E-001	  2.23621E-001	  2.27498E-001	  2.29576E-001
  2.56000E-002	  2.04819E-001	  2.04086E-001	  2.07891E-001	  2.09236E-001
  2.88000E-002	  1.69021E-001	  1.68843E-001	  1.71406E-001	  1.72470E-001
  3.20000E-002	  1.39088E-001	  1.39044E-001	  1.40661E-001	  1.42702E-001
  3.52000E-002	  1.15853E-001	  1.15366E-001	  1.16843E-001	  1.17705E-001
  3.84000E-002	  9.57358E-002	  9.63100E-002	  9.67929E-002	  9.79242E-002
  4.16000E-002	  7.93330E-002	  7.97697E-002	  8.04446E-002	  8.08582E-002
  4.48000E-002	  6.62295E-002	  6.66921E-002	  6.55065E-002	  6.70566E-002
  4.80000E-002	  5.47840E-002	  5.54450E-002	  5.51224E-002	  5.57922E-002
  5.12000E-002	  4.61586E-002	  4.66914E-002	  4.64313E-002	  4.73076E-002
  5.76000E-002	  3.20821E-002	  3.22597E-002	  3.29042E-002	  3.31111E-002
  6.40000E-002	  2.27127E-002	  2.30970E-002	  2.29973E-002	  2.36887E-002
  7.04000E-002	  1.57543E-002	  1.62191E-002	  1.52900E-002	  1.70982E-002
  7.68000E-002	  1.14455E-002	  1.16940E-002	  1.08340E-002	  1.15359E-002
  8.32000E-002	  7.54931E-003	  7.05720E-003	  7.06043E-003	  8.26872E-003
  8.96000E-002	  5.36581E-003	  5.37935E-003	  4.70017E-003	  5.35765E-003
  9.60000E-002	  4.09215E-003	  3.70031E-003	  4.49743E-003	  3.84396E-003
  1.02400E-001	  3.20032E-003	  3.19467E-003	  3.20980E-003	  2.31400E-003
  1.15200E-001	  1.64468E-003	  1.41394E-003	  1.24851E-003	  1.64030E-003
  1.28000E-001	  1.25244E-003	  1.33237E-003	  8.00681E-004	  7.55504E-004
  1.40800E-001	  3.81057E-004	  8.55368E-004	  5.48264E-004	  4.45615E-004
  1.53600E-001	  5.13300E-004	  1.20277E-003	  7.28061E-004	  3.54321E-004
  1.66400E-001	  2.41796E-004	  6.45822E-004	  5.70177E-004	  4.80502E-004
  1.79200E-001	  2.04060E-004	  2.06058E-004	  2.10418E-004	  4.66634E-004
  1.92000E-001	 -3.30396E-004	 -2.00988E-004	  1.05055E-004	 -2.39862E-004
  2.04800E-001	 -4.00856E-004	 -7.08401E-004	 -3.51827E-004	 -4.10400E-004
  2.30400E-001	 -2.36866E-005	  8.92412E-005	 -1.46493E-004	  4.68221E-004
  2.56000E-001	  3.55511E-005	 -2.87773E-005	 -4.61497E-004	 -2.21702E-004
  2.81600E-001	 -8.46779E-006	 -1.88202E-004	 -3.38773E-004	  1.93345E-004
  3.07200E-001	  2.70262E-004	 -2.72198E-004	 -3.02524E-004	 -1.21200E-004
  3.32800E-001	  5.41383E-005	  1.41267E-004	 -3.88645E-004	  1.50631E-004
  3.58400E-001	  1.18062E-004	  2.26948E-004	  2.51872E-004	 -5.69915E-004
  3.84000E-001	  1.04640E-005	 -2.32014E-004	  4.71020E-004	 -3.85572E-004
  4.09600E-001	 -1.60643E-004	 -4.22463E-004	  4.27171E-004	 -7.24446E-004
  4.60800E-001	 -2.89289E-004	 -4.15824E-004	  6.28651E-005	 -1.69995E-004
  5.12000E-001	  3.36382E-004	  2.71925E-004	  5.39213E-005	  7.86232E-004
  5.63200E-001	  6.07406E-005	  3.56715E-004	  1.04068E-004	  2.43512E-004
  6.14400E-001	  2.97295E-004	  1.78946E-004	 -1.89587E-004	  3.90185E-004
  6.65600E-001	  4.76404E-004	  6.53904E-004	  4.11142E-004	  2.43173E-004
  7.16800E-001	 -2.28355E-005	  1.84585E-004	 -2.74232E-004	  1.25469E-004
  7.68000E-001	 -1.22111E-004	  2.22399E-004	 -2.21139E-004	 -5.68155E-005
  8.19200E-001	  5.53669E-005	 -7.41912E-005	 -8.61639E-005	  1.94483E-004
  9.21600E-001	 -8.14622E-006	 -2.14393E-004	  2.86044E-004	 -2.58094E-004
  1.02400E+000	  3.93078E-004	  1.51220E-004	  1.51631E-004	  4.09332E-004
  1.12640E+000	  3.56915E-004	  5.94553E-004	  4.16977E-004	  2.71057E-004
  1.22880E+000	  2.44986E-004	  1.38944E-004	  2.78074E-004	  1.99924E-004
  1.33120E+000	  8.04814E-005	  1.90877E-004	  1.06677E-004	  2.50839E-004
  1.43360E+000	 -2.46808E-004	 -2.50615E-004	 -1.85318E-004	 -1.12944E-004
  1.53600E+000	  1.34768E-004	  2.68257E-004	 -3.21699E-004	  3.83038E-004
  1.63840E+000	 -3.00816E-004	 -3.38888E-004	 -4.13942E-004	 -1.35979E-004
  1.84320E+000	  7.35595E-005	  9.04749E-005	 -5.12777E-005	  9.86365E-005
  2.04800E+000	 -2.23403E-004	 -4.05133E-005	 -1.16938E-004	 -2.15038E-004
  2.25280E+000	 -3.72259E-005	 -1.68023E-004	 -4.09723E-005	 -3.82105E-005
  2.45760E+000	  1.30534E-004	  8.06091E-005	  2.29399E-004	  1.56220E-004
  2.66240E+000	 -7.34203E-005	 -2.18182E-004	  2.83319E-004	 -3.07116E-004
  2.86720E+000	  2.33489E-004	  1.29096E-004	  4.17017E-004	  4.14245E-005
  3.07200E+000	 -8.10465E-005	 -1.48365E-004	  1.36858E-004	 -3.06301E-004
  3.27680E+000	  1.28312E-004	  1.15997E-004	  1.60529E-004	  9.93888E-005
  3.68640E+000	  2.65069E-005	  6.74289E-005	  1.18177E-004	 -1.51734E-004
  4.09600E+000	  3.53251E-005	  9.74302E-005	  1.52426E-005	  1.22319E-004
  4.50560E+000	  2.26903E-004	  2.85401E-004	  2.72883E-004	  1.84428E-004
  4.91520E+000	  1.69504E-004	  1.48013E-004	  1.48875E-004	  1.46263E-004
  5.32480E+000	  2.25798E-004	  2.08959E-004	  1.59107E-004	  3.40862E-004
  5.73440E+000	 -7.80558E-005	 -2.06105E-004	 -6.38391E-007	  1.08238E-005
  6.14400E+000	 -1.61838E-005	 -6.98551E-005	 -3.77018E-005	  5.77668E-005
  6.55360E+000	 -1.63048E-004	 -1.48214E-004	 -2.47796E-004	 -6.79706E-005
  7.37280E+000	 -8.89721E-006	  1.45706E-005	 -2.67812E-005	  9.42802E-005
  8.19200E+000	  9.71022E-005	  3.87617E-005	  9.51607E-005	  3.25025E-005
  9.01120E+000	 -3.05985E-006	  8.06139E-005	 -7.07528E-005	  8.17142E-005
  9.83040E+000	  1.19149E-005	 -9.26702E-006	  4.69042E-005	 -1.12328E-005
  1.06496E+001	  4.76526E-005	  1.99826E-005	  1.21709E-004	 -3.02843E-005
  1.14688E+001	 -2.72863E-004	 -2.34778E-004	 -3.22516E-004	 -1.46667E-004
  1.22880E+001	  4.83110E-005	  1.32614E-004	 -7.77781E-005	  6.00025E-005
  1.31072E+001	 -2.69445E-005	 -8.10216E-005	 -1.02872E-004	 -4.53479E-005
  1.47456E+001	  5.35133E-005	  2.99732E-005	  6.34962E-005	  2.88240E-005
  1.63840E+001	 -3.49941E-005	 -8.39081E-005	 -1.48700E-004	  4.58514E-005
  1.80224E+001	  1.57339E-004	  1.71072E-004	  1.73933E-004	  1.56804E-004
  1.96608E+001	 -4.25141E-005	 -3.26914E-005	 -2.65997E-005	 -1.63851E-005
  2.12992E+001	  3.77530E-005	 -2.42710E-005	  2.78356E-005	 -8.34000E-006
  2.29376E+001	  3.16423E-005	  5.79877E-005	  6.87097E-005	  3.13136E-006
  2.45760E+001	  7.80120E-005	  6.93245E-005	  1.57339E-004	  5.09496E-005
  2.62144E+001	 -4.35570E-005	 -1.79946E-005	  7.67614E-007	 -8.71575E-005
  2.94912E+001	 -4.20176E-005	 -8.49783E-005	 -4.07372E-005	 -5.48422E-005
  3.27680E+001	 -2.43459E-005	 -3.61227E-005	  7.15197E-006	 -6.94350E-005
  3.60448E+001	 -4.42162E-005	 -2.75759E-005	 -1.14600E-004	  1.48768E-005
  3.93216E+001	  6.19976E-005	  6.68507E-005	  5.00485E-005	  7.01133E-005
  4.25984E+001	  4.68023E-005	 -7.13663E-006	  3.26471E-005	  9.59574E-005
  4.58752E+001	  7.90278E-006	  8.22707E-006	  2.52736E-005	  1.89605E-005
  4.91520E+001	 -5.37996E-005	 -7.66058E-005	 -8.21155E-005	 -8.11384E-005
  5.24288E+001	 -1.38483E-005	 -2.93991E-005	 -2.14150E-005	 -2.69794E-005
  5.89824E+001	 -6.03965E-005	 -6.00163E-005	 -3.92482E-005	 -7.25847E-005
  6.55360E+001	  5.53713E-005	  6.15439E-005	  4.84019E-005	  3.70180E-005
  7.20896E+001	  1.28736E-005	  3.14989E-005	  7.86837E-006	  3.53164E-005
  7.86432E+001	  3.35224E-005	  5.30369E-005	  2.46099E-005	  1.16198E-005
  8.51968E+001	 -3.99455E-005	 -3.49166E-005	 -3.43688E-005	 -4.72966E-005
  9.17504E+001	 -1.91739E-005	  2.84588E-006	 -1.06871E-005	 -6.81308E-006
  9.83040E+001	  1.05508E-005	 -4.12458E-005	  9.25598E-006	  1.50294E-005
  1.04858E+002	  1.10770E-005	  3.78660E-006	  1.39946E-005	  1.42419E-005
  1.17965E+002	  3.57395E-005	  3.76864E-005	  2.55537E-005	  4.62735E-005
  1.31072E+002	  4.30956E-005	  4.99392E-005	  5.91430E-005	  3.50080E-005
  1.44179E+002	 -2.22162E-006	  5.63490E-006	 -1.67972E-005	  1.43826E-005
  1.57286E+002	  3.18699E-005	  1.84355E-005	  1.46555E-005	  2.04293E-005
  1.70394E+002	 -1.39720E-007	  5.15039E-006	 -1.80592E-005	 -3.10447E-006
  1.83501E+002	 -1.89289E-006	  6.36018E-006	  1.07517E-005	 -1.82589E-005
  1.96608E+002	  3.17809E-006	  4.88393E-006	 -9.33488E-007	  9.48823E-006
  2.09715E+002	  2.80118E-006	  1.50709E-005	  6.53942E-007	  1.50142E-005
  2.35930E+002	  9.65826E-006	  1.79765E-005	 -6.62204E-007	  1.76189E-005
  2.62144E+002	  7.12335E-006	 -4.35401E-007	  1.41359E-005	  1.51022E-005
  2.88358E+002	  2.82118E-006	  9.26458E-006	  9.75192E-006	  8.15470E-006
  3.14573E+002	  1.48767E-005	  1.90216E-005	  1.56186E-005	  7.06111E-006
  3.40787E+002	  8.25636E-006	  1.09351E-005	  1.76832E-005	 -8.46080E-006
  3.67002E+002	  5.80774E-007	 -1.57496E-006	  9.77017E-006	 -2.14102E-006
  3.93216E+002	 -3.99017E-006	 -1.43041E-005	 -1.96500E-005	  5.29839E-007
  4.19430E+002	  8.36984E-006	  5.51576E-006	  2.91312E-006	  1.13618E-005
  4.71859E+002	 -1.91432E-005	 -1.92500E-005	 -2.21747E-006	 -2.34341E-005
  5.24288E+002	 -6.96164E-008	 -6.15759E-006	 -2.70922E-006	 -1.51156E-006
  5.76717E+002	 -4.66758E-006	 -7.73477E-006	 -1.17976E-005	  2.10706E-006
  6.29146E+002	  2.52856E-005	  4.41009E-005	  1.86656E-005	  1.42284E-005
  6.81574E+002	  4.83541E-006	  1.00395E-005	  3.86387E-006	  1.57222E-005
  7.34003E+002	  1.66936E-005	  2.04786E-005	  1.53318E-005	  1.58595E-005
  7.86432E+002	  1.89782E-005	  3.41205E-005	  1.74791E-005	  1.91663E-005
  8.38861E+002	  1.36578E-006	  7.63415E-006	 -1.53651E-005	  1.24148E-005
  9.43718E+002	 -9.36025E-006	 -1.02490E-005	 -1.70412E-005	 -4.53669E-006
  1.04858E+003	 -7.27208E-006	 -8.56105E-006	 -1.19008E-005	 -7.06366E-006
  1.15343E+003	  2.11533E-006	 -3.98063E-006	  1.22679E-005	 -1.08347E-005
  1.25829E+003	  8.03857E-006	 -1.75281E-006	  3.72959E-006	  1.25183E-005
  1.36315E+003	 -4.97986E-006	 -5.00891E-006	 -8.22077E-006	 -4.12121E-006
  1.46801E+003	  3.23239E-006	  7.89008E-006	  1.69809E-006	 -3.20958E-006
  1.57286E+003	  3.01013E-006	  5.88492E-006	  2.61817E-006	 -3.94172E-006
  1.67772E+003	 -1.00921E-005	 -7.58241E-006	 -7.51968E-006	 -1.01553E-005
  1.88744E+003	 -8.24832E-006	 -7.73528E-006	 -5.01954E-006	 -5.91642E-006
  2.09715E+003	 -1.37809E-005	 -1.32784E-005	 -1.37088E-005	 -1.39914E-005
  2.30687E+003	 -5.30755E-006	 -1.89022E-006	 -2.60081E-006	 -7.06923E-006
  2.51658E+003	 -5.37421E-006	 -7.57548E-006	 -7.77899E-006	 -3.61068E-006
  2.72630E+003	  4.49601E-006	  5.94065E-006	  1.25115E-005	 -2.87678E-006
  2.93601E+003	 -4.63503E-006	 -7.14218E-006	 -7.99378E-007	 -6.27811E-006
  3.14573E+003	  3.14835E-006	  7.02667E-006	  5.54064E-006	 -2.04419E-006
  3.35544E+003	  4.01071E-006	  4.95267E-006	  1.31342E-006	  4.06144E-006
  3.77487E+003	  4.23899E-007	 -5.63642E-008	  3.96438E-006	 -2.35405E-006
  4.19430E+003	  1.32677E-006	  2.98068E-006	 -1.36190E-006	  2.84890E-006
  4.61373E+003	  1.43174E-006	 -4.33090E-006	 -4.81837E-006	  7.06350E-006
  5.03317E+003	  1.22392E-007	  4.44678E-007	 -3.71034E-006	  1.20610E-006
  5.45260E+003	 -6.19360E-006	 -6.11409E-006	 -5.04692E-006	 -6.05356E-006
  5.87203E+003	 -4.66758E-006	 -9.33747E-006	 -8.49440E-006	 -2.54589E-006
  6.29146E+003	  1.33731E-006	 -4.06989E-006	  1.41127E-006	 -1.33569E-006
  6.71089E+003	  6.72695E-006	  8.89720E-006	  9.91968E-006	  1.25352E-006
  7.54975E+003	 -1.53851E-007	  1.78013E-006	  1.84567E-006	 -1.86004E-006
  8.38861E+003	 -3.76421E-006	 -5.22175E-006	 -4.17156E-006	 -4.04639E-006
  9.22747E+003	 -7.32115E-007	 -3.20371E-006	  2.98524E-008	 -2.79224E-006
  1.00663E+004	 -2.45237E-006	 -9.01842E-008	 -2.15024E-006	 -8.87346E-007
  1.09052E+004	  1.78400E-006	  3.26175E-006	 -1.08506E-006	  3.55954E-006
  1.17441E+004	  1.88414E-006	  1.28683E-006	 -9.38598E-007	  2.71030E-006

"Count Rate"
       0.19531	     289.37064	     343.84418	     289.37064	     343.84418
       0.39063	     286.68353	     341.87878	     286.68353	     341.87878
       0.58594	     286.36108	     342.02209	     286.36108	     342.02209
       0.78125	     286.41229	     343.31702	     286.41229	     343.31702
       0.97656	     284.04254	     339.22751	     284.04254	     339.22751
       1.17188	     286.79614	     339.64722	     286.79614	     339.64722
       1.36719	     285.89023	     342.70795	     285.89023	     342.70795
       1.56250	     283.84802	     340.32794	     283.84802	     340.32794
       1.75781	     289.34503	     344.39694	     289.34503	     344.39694
       1.95313	     282.42004	     337.87631	     282.42004	     337.87631
       2.14844	     279.69202	     335.66010	     279.69202	     335.66010
       2.34375	     283.59723	     338.82318	     283.59723	     338.82318
       2.53906	     286.47882	     340.90118	     286.47882	     340.90118
       2.73438	     283.19803	     337.29282	     283.19803	     337.29282
       2.92969	     288.68991	     344.03357	     288.68991	     344.03357
       3.12500	     284.90240	     340.73230	     284.90240	     340.73230
       3.32031	     283.58701	     337.56921	     283.58701	     337.56921
       3.51563	     282.04129	     337.26212	     282.04129	     337.26212
       3.71094	     287.78397	     342.00162	     287.78397	     342.00162
       3.90625	     284.23703	     338.19363	     284.23703	     338.19363
       4.10156	     288.14224	     339.86731	     288.14224	     339.86731
       4.29688	     284.67206	     337.28259	     284.67206	     337.28259
       4.49219	     288.42886	     340.79370	     288.42886	     340.79370
       4.68750	     283.58188	     340.93701	     283.58188	     340.93701
       4.88281	     285.49612	     340.66574	     285.49612	     340.66574
       5.07813	     284.49805	     340.86023	     284.49805	     340.86023
       5.27344	     278.84238	     338.20898	     278.84238	     338.20898
       5.46875	     286.91898	     339.74448	     286.91898	     339.74448
       5.66406	     289.85687	     343.60364	     289.85687	     343.60364
       5.85938	     287.94263	     342.97919	     287.94263	     342.97919
       6.05469	     288.62848	     345.01627	     288.62848	     345.01627
       6.25000	     290.49152	     345.48715	     290.49152	     345.48715
       6.44531	     285.70596	     341.64847	     285.70596	     341.64847
       6.64063	     285.71109	     340.68622	     285.71109	     340.68622
       6.83594	     284.67719	     341.05984	     284.67719	     341.05984
       7.03125	     288.36234	     346.06552	     288.36234	     346.06552
       7.22656	     286.89340	     338.65427	     286.89340	     338.65427
       7.42188	     284.08347	     337.43103	     284.08347	     337.43103
       7.61719	     284.03229	     339.82123	     284.03229	     339.82123
       7.81250	     284.81027	     340.75275	     284.81027	     340.75275
       8.00781	     284.38034	     336.93967	     284.38034	     336.93967
       8.20313	     286.85757	     341.07010	     286.85757	     341.07010
       8.39844	     286.47369	     344.39185	     286.47369	     344.39185
       8.59375	     285.57800	     341.32089	     285.57800	     341.32089
       8.78906	     283.96576	     339.70865	     283.96576	     339.70865
       8.98438	     285.00476	     339.60626	     285.00476	     339.60626
       9.17969	     286.27408	     340.78348	     286.27408	     340.78348
       9.37500	     282.39444	     339.03302	     282.39444	     339.03302
       9.57031	     285.41422	     341.18271	     285.41422	     341.18271
       9.76563	     285.14807	     337.92236	     285.14807	     337.92236
       9.96094	     284.81027	     340.55826	     284.81027	     340.55826
      10.15625	     283.47952	     339.86731	     283.47952	     339.86731
      10.35156	     284.77444	     340.01062	     284.77444	     340.01062
      10.54688	     281.60623	     338.80783	     281.60623	     338.80783
      10.74219	     286.35086	     339.65744	     286.35086	     339.65744
      10.93750	     281.99524	     338.55704	     281.99524	     338.55704
      11.13281	     281.92358	     338.44443	     281.92358	     338.44443
      11.32813	     288.92535	     344.73477	     288.92535	     344.73477
      11.52344	     284.11929	     338.91019	     284.11929	     338.91019
      11.71875	     282.71689	     342.10910	     282.71689	     342.10910
      11.91406	     285.00476	     337.77393	     285.00476	     337.77393
      12.10938	     283.11612	     337.25189	     283.11612	     337.25189
      12.30469	     283.18265	     340.92679	     283.18265	     340.92679
      12.50000	     286.79614	     342.52881	     286.79614	     342.52881
      12.69531	     285.33743	     341.55121	     285.33743	     341.55121
      12.89063	     284.41617	     341.08032	     284.41617	     341.08032
      13.08594	     286.85757	     343.09180	     286.85757	     343.09180
      13.28125	     289.73914	     344.62216	     289.73914	     344.62216
      13.47656	     282.89603	     337.75858	     282.89603	     337.75858
      13.67188	     284.68744	     340.93192	     284.68744	     340.93192
      13.86719	     284.49292	     339.48343	     284.49292	     339.48343
      14.06250	     284.77954	     339.70865	     284.77954	     339.70865
      14.25781	     281.75467	     332.99350	     281.75467	     332.99350
      14.45313	     286.26895	     340.71182	     286.26895	     340.71182
      14.64844	     282.53265	     333.99155	     282.53265	     333.99155
      14.84375	     284.54922	     339.47321	     284.54922	     339.47321
      15.03906	     283.89920	     334.93842	     283.89920	     334.93842
      15.23438	     284.08347	     338.58261	     284.08347	     338.58261
      15.42969	     284.12955	     337.48221	     284.12955	     337.48221
      15.62500	     285.19925	     339.38620	     285.19925	     339.38620
      15.82031	     284.04254	     340.90118	     284.04254	     340.90118
      16.01563	     282.11295	     337.00620	     282.11295	     337.00620
      16.21094	     287.60483	     344.72452	     287.60483	     344.72452
      16.40625	     285.81345	     340.57361	     285.81345	     340.57361
      16.60156	     286.41229	     343.08157	     286.41229	     343.08157
      16.79688	     284.35474	     337.24164	     284.35474	     337.24164
      16.99219	     282.73224	     337.01645	     282.73224	     337.01645
      17.18750	     288.66431	     343.91074	     288.66431	     343.91074
      17.38281	     287.49222	     343.62411	     287.49222	     343.62411
      17.57813	     287.74814	     345.27219	     287.74814	     345.27219
      17.77344	     284.01694	     337.44638	     284.01694	     337.44638
      17.96875	     288.62848	     341.31064	     288.62848	     341.31064
      18.16406	     287.43082	     341.36185	     287.43082	     341.36185
      18.35938	     283.79172	     339.00232	     283.79172	     339.00232
      18.55469	     288.75131	     342.80005	     288.75131	     342.80005
      18.75000	     283.92480	     339.30429	     283.92480	     339.30429
      18.94531	     286.81662	     342.81543	     286.81662	     342.81543
      19.14063	     281.91846	     338.36255	     281.91846	     338.36255
      19.33594	     284.25238	     341.01892	     284.25238	     341.01892
      19.53125	     284.80515	     338.16293	     284.80515	     338.16293
      19.72656	     283.98111	     337.31842	     283.98111	     337.31842
      19.92188	     283.98111	     337.08298	     283.98111	     337.08298
      20.11719	     285.35791	     338.80270	     285.35791	     338.80270
      20.31250	     285.70596	     338.56216	     285.70596	     338.56216
      20.50781	     290.55295	     346.00409	     290.55295	     346.00409
      20.70313	     281.29404	     337.84558	     281.29404	     337.84558
      20.89844	     286.56583	     341.61264	     286.56583	     341.61264
      21.09375	     285.22485	     341.83270	     285.22485	     341.83270
      21.28906	     285.29138	     340.83466	     285.29138	     340.83466
      21.48438	     291.08524	     344.38672	     291.08524	     344.38672
      21.67969	     285.44492	     339.71375	     285.44492	     339.71375
      21.87500	     285.27603	     341.86343	     285.27603	     341.86343
      22.07031	     285.83902	     338.04520	     285.83902	     338.04520
      22.26563	     285.49612	     341.60239	     285.49612	     341.60239
      22.46094	     284.57996	     339.11493	     284.57996	     339.11493
      22.65625	     280.78220	     337.35938	     280.78220	     337.35938
      22.85156	     285.12759	     337.50778	     285.12759	     337.50778
      23.04688	     278.89868	     335.09198	     278.89868	     335.09198
      23.24219	     286.34061	     338.51608	     286.34061	     338.51608
      23.43750	     284.55435	     340.50708	     284.55435	     340.50708
      23.63281	     282.69641	     335.28134	     282.69641	     335.28134
      23.82813	     283.66888	     337.83536	     283.66888	     337.83536
      24.02344	     283.93503	     337.55896	     283.93503	     337.55896
      24.21875	     284.35986	     337.36960	     284.35986	     337.36960
      24.41406	     289.29385	     343.27606	     289.29385	     343.27606
      24.60938	     282.70154	     338.91019	     282.70154	     338.91019
      24.80469	     288.75131	     343.81860	     288.75131	     343.81860
      25.00000	     281.14047	     336.68375	     281.14047	     336.68375
      25.19531	     288.30090	     342.29846	     288.30090	     342.29846
      25.39063	     285.72644	     341.05984	     285.72644	     341.05984
      25.58594	     285.13782	     338.51608	     285.13782	     338.51608
      25.78125	     281.25308	     335.48096	     281.25308	     335.48096
      25.97656	     285.61383	     341.41302	     285.61383	     341.41302
      26.17188	     284.61578	     340.44055	     284.61578	     340.44055
      26.36719	     286.12564	     341.63821	     286.12564	     341.63821
      26.56250	     286.26385	     340.56339	     286.26385	     340.56339
      26.75781	     287.21585	     342.35477	     287.21585	     342.35477
      26.95313	     283.44882	     336.91919	     283.44882	     336.91919
      27.14844	     288.39304	     343.60364	     288.39304	     343.60364
      27.34375	     290.11276	     343.65482	     290.11276	     343.65482
      27.53906	     283.09055	     339.18146	     283.09055	     339.18146
      27.73438	     282.49170	     336.01324	     282.49170	     336.01324
      27.92969	     283.40274	     336.99084	     283.40274	     336.99084
      28.12500	     285.22995	     337.70740	     285.22995	     337.70740
      28.32031	     282.85510	     333.61279	     282.85510	     333.61279
      28.51563	     290.94193	     346.91513	     290.94193	     346.91513
      28.71094	     281.72397	     336.15659	     281.72397	     336.15659
      28.90625	     284.26773	     338.29089	     284.26773	     338.29089
      29.10156	     284.49805	     339.77518	     284.49805	     339.77518
      29.29688	     283.34644	     337.47708	     283.34644	     337.47708
      29.49219	     284.52875	     340.51221	     284.52875	     340.51221
      29.68750	     287.31821	     337.88141	     287.31821	     337.88141
      29.88281	     286.88315	     342.53391	     286.88315	     342.53391
      30.07813	     285.15320	     338.15781	     285.15320	     338.15781
      30.27344	     282.40469	     335.98254	     282.40469	     335.98254
      30.46875	     285.76227	     340.38937	     285.76227	     340.38937
      30.66406	     289.74426	     345.09814	     289.74426	     345.09814
      30.85938	     282.80902	     339.58069	     282.80902	     339.58069
      31.05469	     288.06546	     343.77765	     288.06546	     343.77765
      31.25000	     282.51727	     338.19876	     282.51727	     338.19876
      31.44531	     284.00159	     339.08932	     284.00159	     339.08932
      31.64063	     287.04694	     342.91266	     287.04694	     342.91266
      31.83594	     283.70984	     342.26263	     283.70984	     342.26263
      32.03125	     283.45905	     335.98254	     283.45905	     335.98254
      32.22656	     282.77319	     338.08102	     282.77319	     338.08102
      32.42188	     286.73984	     340.03110	     286.73984	     340.03110
      32.61719	     279.85580	     335.68057	     279.85580	     335.68057
      32.81250	     286.58118	     341.04449	     286.58118	     341.04449
      33.00781	     283.41809	     338.15268	     283.41809	     338.15268
      33.20313	     286.46347	     344.15128	     286.46347	     344.15128
      33.39844	     282.22556	     337.68182	     282.22556	     337.68182
      33.59375	     285.83902	     338.24481	     285.83902	     338.24481
      33.78906	     286.05399	     340.71692	     286.05399	     340.71692
      33.98438	     283.25430	     336.46365	     283.25430	     336.46365
      34.17969	     281.59601	     340.02084	     281.59601	     340.02084
      34.37500	     291.05453	     341.89413	     291.05453	     341.89413
      34.57031	     282.73224	     338.69009	     282.73224	     338.69009
      34.76563	     283.99133	     339.67282	     283.99133	     339.67282
      34.96094	     283.26456	     337.66135	     283.26456	     337.66135
      35.15625	     283.98624	     342.06815	     283.98624	     342.06815
      35.35156	     284.17560	     339.96967	     284.17560	     339.96967
      35.54688	     286.62213	     341.78665	     286.62213	     341.78665
      35.74219	     281.59088	     335.34790	     281.59088	     335.34790
      35.93750	     287.63553	     339.12003	     287.63553	     339.12003
      36.13281	     287.22607	     341.09058	     287.22607	     341.09058
      36.32813	     284.28821	     341.59726	     284.28821	     341.59726
      36.52344	     285.72644	     337.83536	     285.72644	     337.83536
      36.71875	     289.47299	     341.60239	     289.47299	     341.60239
      36.91406	     285.06107	     341.39255	     285.06107	     341.39255
      37.10938	     288.42374	     345.50250	     288.42374	     345.50250
      37.30469	     286.05911	     341.99649	     286.05911	     341.99649
      37.50000	     287.86075	     343.79300	     287.86075	     343.79300
      37.69531	     282.07199	     335.50143	     282.07199	     335.50143
      37.89063	     285.93115	     340.52243	     285.93115	     340.52243
      38.08594	     283.59723	     337.51291	     283.59723	     337.51291
      38.28125	     285.85950	     341.15198	     285.85950	     341.15198
      38.47656	     287.27216	     342.75400	     287.27216	     342.75400
      38.67188	     281.98499	     333.92502	     281.98499	     333.92502
      38.86719	     282.34839	     338.61334	     282.34839	     338.61334
      39.06250	     286.79102	     341.56656	     286.79102	     341.56656
      39.25781	     286.71936	     342.16028	     286.71936	     342.16028
      39.45313	     285.10199	     340.23581	     285.10199	     340.23581
      39.64844	     287.62531	     338.82831	     287.62531	     338.82831
      39.84375	     282.02594	     339.16611	     282.02594	     339.16611
      40.03906	     281.94403	     338.95627	     281.94403	     338.95627
      40.23438	     286.39691	     343.04575	     286.39691	     343.04575
      40.42969	     281.36569	     338.08615	     281.36569	     338.08615
      40.62500	     282.75784	     335.15338	     282.75784	     335.15338
      40.82031	     285.64966	     337.77393	     285.64966	     337.77393
      41.01563	     285.11224	     339.88779	     285.11224	     339.88779
      41.21094	     285.65479	     338.24994	     285.65479	     338.24994
      41.40625	     287.03671	     341.66382	     287.03671	     341.66382
      41.60156	     280.75150	     337.22116	     280.75150	     337.22116
      41.79688	     284.63623	     340.27676	     284.63623	     340.27676
      41.99219	     285.38351	     342.10910	     285.38351	     342.10910
      42.18750	     281.78537	     334.29865	     281.78537	     334.29865
      42.38281	     286.23312	     338.07593	     286.23312	     338.07593
      42.57813	     284.62088	     338.52634	     284.62088	     338.52634
      42.77344	     286.20242	     341.15198	     286.20242	     341.15198
      42.96875	     286.49930	     342.00162	     286.49930	     342.00162
      43.16406	     287.10837	     341.67917	     287.10837	     341.67917
      43.35938	     282.37909	     337.61526	     282.37909	     337.61526
      43.55469	     285.76736	     342.43155	     285.76736	     342.43155
      43.75000	     286.75519	     344.84225	     286.75519	     344.84225
      43.94531	     284.72836	     338.87436	     284.72836	     338.87436
      44.14063	     288.88953	     346.02969	     288.88953	     346.02969
      44.33594	     283.30551	     339.57043	     283.30551	     339.57043
      44.53125	     283.45392	     339.17633	     283.45392	     339.17633
      44.72656	     286.14102	     340.46103	     286.14102	     340.46103
      44.92188	     285.86975	     341.74570	     285.86975	     341.74570
      45.11719	     279.99911	     335.94159	     279.99911	     335.94159
      45.31250	     283.67914	     337.16998	     283.67914	     337.16998
      45.50781	     283.70471	     338.38812	     283.70471	     338.38812
      45.70313	     285.42447	     342.74887	     285.42447	     342.74887
      45.89844	     286.46347	     342.13470	     286.46347	     342.13470
      46.09375	     286.39691	     340.24094	     286.39691	     340.24094
      46.28906	     285.96698	     341.96579	     285.96698	     341.96579
      46.48438	     285.50122	     341.25436	     285.50122	     341.25436
      46.67969	     289.38086	     344.26389	     289.38086	     344.26389
      46.87500	     282.25626	     336.70935	     282.25626	     336.70935
      47.07031	     286.28943	     336.17703	     286.28943	     336.17703
      47.26563	     283.11612	     339.70352	     283.11612	     339.70352
      47.46094	     285.24533	     346.37772	     285.24533	     346.37772
      47.65625	     286.16147	     341.31064	     286.16147	     341.31064
      47.85156	     285.74692	     337.93771	     285.74692	     337.93771
      48.04688	     284.92285	     340.15906	     284.92285	     340.15906
      48.24219	     281.75467	     333.50531	     281.75467	     333.50531
      48.43750	     286.32016	     339.01254	     286.32016	     339.01254
      48.63281	     284.33939	     339.14563	     284.33939	     339.14563
      48.82813	     284.32916	     340.06180	     284.32916	     340.06180
      49.02344	     285.60361	     340.23071	     285.60361	     340.23071
      49.21875	     283.77127	     338.87949	     283.77127	     338.87949
      49.41406	     278.69394	     333.43365	     278.69394	     333.43365
      49.60938	     283.16730	     338.67987	     283.16730	     338.67987

Monitor Diode	1632477.30
"StandardDeviation"
  3.12500E-006	  1.03202E-002
  6.25000E-006	  1.03203E-002
  9.37500E-006	  1.03203E-002
  1.25000E-005	  1.03203E-002
  1.56250E-005	  1.03203E-002
  1.87500E-005	  1.03203E-002
  2.18750E-005	  1.03203E-002
  2.50000E-005	  1.03203E-002
  2.81250E-005	  1.02836E-002
  3.12500E-005	  1.03202E-002
  3.43750E-005	  1.02910E-002
  3.75000E-005	  1.03013E-002
  4.06250E-005	  1.03113E-002
  4.37500E-005	  1.02936E-002
  4.68750E-005	  1.03203E-002
  5.00000E-005	  7.30494E-003
  5.62500E-005	  7.28442E-003
  6.25000E-005	  7.26912E-003
  6.87500E-005	  7.27892E-003
  7.50000E-005	  7.26653E-003
  8.12500E-005	  7.29216E-003
  8.75000E-005	  7.26651E-003
  9.37500E-005	  7.27885E-003
  1.00000E-004	  5.15250E-003
  1.12500E-004	  5.15373E-003
  1.25000E-004	  5.16030E-003
  1.37500E-004	  5.14654E-003
  1.50000E-004	  5.14503E-003
  1.62500E-004	  5.15919E-003
  1.75000E-004	  5.15493E-003
  1.87500E-004	  5.14326E-003
  2.00000E-004	  3.65535E-003
  2.25000E-004	  3.64950E-003
  2.50000E-004	  3.65005E-003
  2.75000E-004	  3.64678E-003
  3.00000E-004	  3.64890E-003
  3.25000E-004	  3.64677E-003
  3.50000E-004	  3.64759E-003
  3.75000E-004	  3.65102E-003
  4.00000E-004	  2.60046E-003
  4.50000E-004	  2.59489E-003
  5.00000E-004	  2.59530E-003
  5.50000E-004	  2.59643E-003
  6.00000E-004	  2.59549E-003
  6.50000E-004	  2.59452E-003
  7.00000E-004	  2.59345E-003
  7.50000E-004	  2.59625E-003
  8.00000E-004	  1.86278E-003
  9.00000E-004	  1.85985E-003
  1.00000E-003	  1.85832E-003
  1.10000E-003	  1.85524E-003
  1.20000E-003	  1.85539E-003
  1.30000E-003	  1.85301E-003
  1.40000E-003	  1.85265E-003
  1.50000E-003	  1.85166E-003
  1.60000E-003	  1.34628E-003
  1.80000E-003	  1.34414E-003
  2.00000E-003	  1.34199E-003
  2.20000E-003	  1.33897E-003
  2.40000E-003	  1.33771E-003
  2.60000E-003	  1.33541E-003
  2.80000E-003	  1.33314E-003
  3.00000E-003	  1.33079E-003
  3.20000E-003	  9.89514E-004
  3.60000E-003	  9.85841E-004
  4.00000E-003	  9.82819E-004
  4.40000E-003	  9.79471E-004
  4.80000E-003	  9.76450E-004
  5.20000E-003	  9.73270E-004
  5.60000E-003	  9.69965E-004
  6.00000E-003	  9.67094E-004
  6.40000E-003	  7.42001E-004
  7.20000E-003	  7.36781E-004
  8.00000E-003	  7.31755E-004
  8.80000E-003	  7.27196E-004
  9.60000E-003	  7.22538E-004
  1.04000E-002	  7.18377E-004
  1.12000E-002	  7.14017E-004
  1.20000E-002	  7.10160E-004
  1.28000E-002	  5.65659E-004
  1.44000E-002	  5.58291E-004
  1.60000E-002	  5.51824E-004
  1.76000E-002	  5.46005E-004
  1.92000E-002	  5.40604E-004
  2.08000E-002	  5.35781E-004
  2.24000E-002	  5.31143E-004
  2.40000E-002	  5.27083E-004
  2.56000E-002	  4.34943E-004
  2.88000E-002	  4.27915E-004
  3.20000E-002	  4.22135E-004
  3.52000E-002	  4.17445E-004
  3.84000E-002	  4.13452E-004
  4.16000E-002	  4.10167E-004
  4.48000E-002	  4.07389E-004
  4.80000E-002	  4.05101E-004
  5.12000E-002	  3.46838E-004
  5.76000E-002	  3.43750E-004
  6.40000E-002	  3.41464E-004
  7.04000E-002	  3.36535E-004
  7.68000E-002	  3.36535E-004
  8.32000E-002	  3.36535E-004
  8.96000E-002	  3.36535E-004
  9.60000E-002	  3.36535E-004
  1.02400E-001	  2.96283E-004
  1.15200E-001	  2.96283E-004
  1.28000E-001	  2.96283E-004
  1.40800E-001	  2.96283E-004
  1.53600E-001	  2.96283E-004
  1.66400E-001	  2.96283E-004
  1.79200E-001	  2.96283E-004
  1.92000E-001	  2.96283E-004
  2.04800E-001	  2.58547E-004
  2.30400E-001	  2.58547E-004
  2.56000E-001	  2.58547E-004
  2.81600E-001	  2.58547E-004
  3.07200E-001	  2.58547E-004
  3.32800E-001	  2.58547E-004
  3.58400E-001	  2.58547E-004
  3.84000E-001	  2.58547E-004
  4.09600E-001	  2.17414E-004
  4.60800E-001	  2.17414E-004
  5.12000E-001	  2.17414E-004
  5.63200E-001	  2.17414E-004
  6.14400E-001	  2.17414E-004
  6.65600E-001	  2.17414E-004
  7.16800E-001	  2.17414E-004
  7.68000E-001	  2.17414E-004
  8.19200E-001	  1.75098E-004
  9.21600E-001	  1.75098E-004
  1.02400E+000	  1.75098E-004
  1.12640E+000	  1.75098E-004
  1.22880E+000	  1.75098E-004
  1.33120E+000	  1.75098E-004
  1.43360E+000	  1.75098E-004
  1.53600E+000	  1.75098E-004
  1.63840E+000	  1.32473E-004
  1.84320E+000	  1.32473E-004
  2.04800E+000	  1.32473E-004
  2.25280E+000	  1.32473E-004
  2.45760E+000	  1.32473E-004
  2.66240E+000	  1.32473E-004
  2.86720E+000	  1.32473E-004
  3.07200E+000	  1.32473E-004
  3.27680E+000	  9.68098E-005
  3.68640E+000	  9.68098E-005
  4.09600E+000	  9.68098E-005
  4.50560E+000	  9.68098E-005
  4.91520E+000	  9.68098E-005
  5.32480E+000	  9.68098E-005
  5.73440E+000	  9.68098E-005
  6.14400E+000	  9.68098E-005
  6.55360E+000	  6.95647E-005
  7.37280E+000	  6.95647E-005
  8.19200E+000	  6.95647E-005
  9.01120E+000	  6.95647E-005
  9.83040E+000	  6.95647E-005
  1.06496E+001	  6.95647E-005
  1.14688E+001	  6.95647E-005
  1.22880E+001	  6.95647E-005
  1.31072E+001	  4.95820E-005
  1.47456E+001	  4.95820E-005
  1.63840E+001	  4.95820E-005
  1.80224E+001	  4.95820E-005
  1.96608E+001	  4.95820E-005
  2.12992E+001	  4.95820E-005
  2.29376E+001	  4.95820E-005
  2.45760E+001	  4.95820E-005
  2.62144E+001	  3.51985E-005
  2.94912E+001	  3.51985E-005
  3.27680E+001	  3.51985E-005
  3.60448E+001	  3.51985E-005
  3.93216E+001	  3.51985E-005
  4.25984E+001	  3.51985E-005
  4.58752E+001	  3.51985E-005
  4.91520E+001	  3.51985E-005
  5.24288E+001	  2.49382E-005
  5.89824E+001	  2.49382E-005
  6.55360E+001	  2.49382E-005
  7.20896E+001	  2.49382E-005
  7.86432E+001	  2.49382E-005
  8.51968E+001	  2.49382E-005
  9.17504E+001	  2.49382E-005
  9.83040E+001	  2.49382E-005
  1.04858E+002	  1.76513E-005
  1.17965E+002	  1.76513E-005
  1.31072E+002	  1.76513E-005
  1.44179E+002	  1.76513E-005
  1.57286E+002	  1.76513E-005
  1.70394E+002	  1.76513E-005
  1.83501E+002	  1.76513E-005
  1.96608E+002	  1.76513E-005
  2.09715E+002	  1.24875E-005
  2.35930E+002	  1.24875E-005
  2.62144E+002	  1.24875E-005
  2.88358E+002	  1.24875E-005
  3.14573E+002	  1.24875E-005
  3.40787E+002	  1.24875E-005
  3.67002E+002	  1.24875E-005
  3.93216E+002	  1.24875E-005
  4.19430E+002	  8.83214E-006
  4.71859E+002	  8.83214E-006
  5.24288E+002	  8.83214E-006
  5.76717E+002	  8.83214E-006
  6.29146E+002	  8.83214E-006
  6.81574E+002	  8.83214E-006
  7.34003E+002	  8.83214E-006
  7.86432E+002	  8.83214E-006
  8.38861E+002	  6.24604E-006
  9.43718E+002	  6.24604E-006
  1.04858E+003	  6.24604E-006
  1.15343E+003	  6.24604E-006
  1.25829E+003	  6.24604E-006
  1.36315E+003	  6.24604E-006
  1.46801E+003	  6.24604E-006
  1.57286E+003	  6.24604E-006
  1.67772E+003	  4.41688E-006
  1.88744E+003	  4.41688E-006
  2.09715E+003	  4.41688E-006
  2.30687E+003	  4.41688E-006
  2.51658E+003	  4.41688E-006
  2.72630E+003	  4.41688E-006
  2.93601E+003	  4.41688E-006
  3.14573E+003	  4.41688E-006
  3.35544E+003	  3.12331E-006
  3.77487E+003	  3.12331E-006
  4.19430E+003	  3.12331E-006
  4.61373E+003	  3.12331E-006
  5.03317E+003	  3.12331E-006
  5.45260E+003	  3.12331E-006
  5.87203E+003	  3.12331E-006
  6.29146E+003	  3.12331E-006
  6.71089E+003	  2.20854E-006
  7.54975E+003	  2.20854E-006
  8.38861E+003	  2.20854E-006
  9.22747E+003	  2.20854E-006
  1.00663E+004	  2.20854E-006
  1.09052E+004	  2.20854E-006
  1.17441E+004	  2.20854E-006
