ALV-7004 or ALV-7004/FAST Data
Date :	"3/27/2010"
Time :	"11:53:00 AM"
Samplename : 	"BSA 4 g/l in YCl3 8.3mM"
SampMemo(0) : 	""
SampMemo(1) : 	""
SampMemo(2) : 	""
SampMemo(3) : 	""
SampMemo(4) : 	""
SampMemo(5) : 	""
SampMemo(6) : 	""
SampMemo(7) : 	""
SampMemo(8) : 	""
SampMemo(9) : 	""
Temperature [K] :	     295.72063
Viscosity [cp]  :	       0.94171
Refractive Index:	       1.33200
Wavelength [nm] :	     632.80000
Angle [°]       :	      70.00000
Duration [s]    :	        50
Runs            :	         1
Mode            :	"C-CH0/1+1/0"
MeanCR0 [kHz]   :	     230.01444
MeanCR1 [kHz]   :	     274.18347
MeanCR2 [kHz]   :	       0.00000
MeanCR3 [kHz]   :	       0.00000

"Correlation"
  3.12500E-006	  3.36869E-001	  3.51966E-001	 -1.00000E+000	 -1.00000E+000
  6.25000E-006	  3.10489E-001	  3.08761E-001	 -1.00000E+000	 -1.00000E+000
  9.37500E-006	  3.30211E-001	  3.47493E-001	 -1.00000E+000	 -1.00000E+000
  1.25000E-005	  3.17402E-001	  3.04898E-001	 -1.00000E+000	 -1.00000E+000
  1.56250E-005	  3.29906E-001	  3.20350E-001	 -1.00000E+000	 -1.00000E+000
  1.87500E-005	  3.13386E-001	  3.10591E-001	 -1.00000E+000	 -1.00000E+000
  2.18750E-005	  3.25636E-001	  3.17808E-001	 -1.00000E+000	 -1.00000E+000
  2.50000E-005	  3.40733E-001	  3.45765E-001	 -1.00000E+000	 -1.00000E+000
  2.81250E-005	  3.09828E-001	  3.00018E-001	 -1.00000E+000	 -1.00000E+000
  3.12500E-005	  3.33515E-001	  3.18113E-001	 -1.00000E+000	 -1.00000E+000
  3.43750E-005	  3.16639E-001	  3.21875E-001	 -1.00000E+000	 -1.00000E+000
  3.75000E-005	  3.29194E-001	  3.35090E-001	 -1.00000E+000	 -1.00000E+000
  4.06250E-005	  3.36514E-001	  3.33362E-001	 -1.00000E+000	  4.50828E-001
  4.37500E-005	  3.16538E-001	  3.19842E-001	 -1.00000E+000	  4.88352E-001
  4.68750E-005	  3.31786E-001	  3.19028E-001	 -1.00000E+000	 -2.92239E-001
  5.00000E-005	  3.29296E-001	  3.32854E-001	 -1.00000E+000	  9.38517E-001
  5.62500E-005	  3.26271E-001	  3.11200E-001	 -1.00000E+000	  4.43195E-001
  6.25000E-005	  3.23933E-001	  3.25585E-001	 -1.00000E+000	  4.56158E-001
  6.87500E-005	  3.26780E-001	  3.19130E-001	 -9.65403E-001	  5.20291E-001
  7.50000E-005	  3.24086E-001	  3.25026E-001	  8.55638E-001	  3.55909E-001
  8.12500E-005	  3.33286E-001	  3.22637E-001	  4.46169E-001	  3.76120E-001
  8.75000E-005	  3.19155E-001	  3.23654E-001	  4.23144E-001	  3.62006E-001
  9.37500E-005	  3.22053E-001	  3.19994E-001	  4.13753E-001	  3.56420E-001
  1.00000E-004	  3.25001E-001	  3.27669E-001	  3.73339E-001	  3.38681E-001
  1.12500E-004	  3.28635E-001	  3.20096E-001	  3.78580E-001	  3.51090E-001
  1.25000E-004	  3.21341E-001	  3.18240E-001	  3.53708E-001	  3.66142E-001
  1.37500E-004	  3.20744E-001	  3.22561E-001	  3.39530E-001	  3.41368E-001
  1.50000E-004	  3.29957E-001	  3.32473E-001	  3.25897E-001	  3.45142E-001
  1.62500E-004	  3.29753E-001	  3.28381E-001	  3.22110E-001	  3.41538E-001
  1.75000E-004	  3.27136E-001	  3.22891E-001	  3.18899E-001	  3.48084E-001
  1.87500E-004	  3.23260E-001	  3.24264E-001	  3.32168E-001	  3.39875E-001
  2.00000E-004	  3.26805E-001	  3.30147E-001	  3.24640E-001	  3.42476E-001
  2.25000E-004	  3.25109E-001	  3.23806E-001	  3.25412E-001	  3.38020E-001
  2.50000E-004	  3.19638E-001	  3.14390E-001	  3.15278E-001	  3.36656E-001
  2.75000E-004	  3.25357E-001	  3.23590E-001	  3.26654E-001	  3.40622E-001
  3.00000E-004	  3.18596E-001	  3.11658E-001	  3.21050E-001	  3.32029E-001
  3.25000E-004	  3.19873E-001	  3.21646E-001	  3.31168E-001	  3.32115E-001
  3.50000E-004	  3.23921E-001	  3.25890E-001	  3.27912E-001	  3.32019E-001
  3.75000E-004	  3.23025E-001	  3.16156E-001	  3.26685E-001	  3.36485E-001
  4.00000E-004	  3.20944E-001	  3.16207E-001	  3.23428E-001	  3.33031E-001
  4.50000E-004	  3.26592E-001	  3.25795E-001	  3.22549E-001	  3.33010E-001
  5.00000E-004	  3.21602E-001	  3.22142E-001	  3.26139E-001	  3.31486E-001
  5.50000E-004	  3.24121E-001	  3.25249E-001	  3.21898E-001	  3.29865E-001
  6.00000E-004	  3.23193E-001	  3.23762E-001	  3.24662E-001	  3.31987E-001
  6.50000E-004	  3.22551E-001	  3.27746E-001	  3.22042E-001	  3.29903E-001
  7.00000E-004	  3.20486E-001	  3.20979E-001	  3.24481E-001	  3.34007E-001
  7.50000E-004	  3.19911E-001	  3.21258E-001	  3.19618E-001	  3.32546E-001
  8.00000E-004	  3.19757E-001	  3.17564E-001	  3.20516E-001	  3.28538E-001
  9.00000E-004	  3.18145E-001	  3.18094E-001	  3.24484E-001	  3.27083E-001
  1.00000E-003	  3.19085E-001	  3.19082E-001	  3.19861E-001	  3.24951E-001
  1.10000E-003	  3.17473E-001	  3.16665E-001	  3.14218E-001	  3.23549E-001
  1.20000E-003	  3.15977E-001	  3.14091E-001	  3.17967E-001	  3.25108E-001
  1.30000E-003	  3.15464E-001	  3.13259E-001	  3.17596E-001	  3.22299E-001
  1.40000E-003	  3.14994E-001	  3.15835E-001	  3.13567E-001	  3.21156E-001
  1.50000E-003	  3.12887E-001	  3.11652E-001	  3.10253E-001	  3.23195E-001
  1.60000E-003	  3.13101E-001	  3.12342E-001	  3.10967E-001	  3.20635E-001
  1.80000E-003	  3.10092E-001	  3.10514E-001	  3.13985E-001	  3.19874E-001
  2.00000E-003	  3.10727E-001	  3.11362E-001	  3.10418E-001	  3.16405E-001
  2.20000E-003	  3.08168E-001	  3.07404E-001	  3.07672E-001	  3.13765E-001
  2.40000E-003	  3.08667E-001	  3.07896E-001	  3.07123E-001	  3.13538E-001
  2.60000E-003	  3.04149E-001	  3.03973E-001	  3.09132E-001	  3.12806E-001
  2.80000E-003	  3.04276E-001	  3.04675E-001	  3.05961E-001	  3.12934E-001
  3.00000E-003	  3.01652E-001	  3.00989E-001	  3.03037E-001	  3.10278E-001
  3.20000E-003	  3.00502E-001	  3.00901E-001	  3.03809E-001	  3.06909E-001
  3.60000E-003	  2.98096E-001	  2.98106E-001	  3.01638E-001	  3.04815E-001
  4.00000E-003	  2.93796E-001	  2.94193E-001	  2.98225E-001	  3.00886E-001
  4.40000E-003	  2.92648E-001	  2.93089E-001	  2.95811E-001	  2.96125E-001
  4.80000E-003	  2.89340E-001	  2.88488E-001	  2.92534E-001	  2.96514E-001
  5.20000E-003	  2.85992E-001	  2.85023E-001	  2.89479E-001	  2.92872E-001
  5.60000E-003	  2.83321E-001	  2.82655E-001	  2.84669E-001	  2.88060E-001
  6.00000E-003	  2.79735E-001	  2.79812E-001	  2.83825E-001	  2.86361E-001
  6.40000E-003	  2.77195E-001	  2.77216E-001	  2.80737E-001	  2.82289E-001
  7.20000E-003	  2.72083E-001	  2.71915E-001	  2.76064E-001	  2.77571E-001
  8.00000E-003	  2.66742E-001	  2.66969E-001	  2.69809E-001	  2.73167E-001
  8.80000E-003	  2.61608E-001	  2.61591E-001	  2.63660E-001	  2.66190E-001
  9.60000E-003	  2.55689E-001	  2.56629E-001	  2.58899E-001	  2.61496E-001
  1.04000E-002	  2.50164E-001	  2.50690E-001	  2.52865E-001	  2.55817E-001
  1.12000E-002	  2.45507E-001	  2.45916E-001	  2.48227E-001	  2.51090E-001
  1.20000E-002	  2.40918E-001	  2.41386E-001	  2.44927E-001	  2.44989E-001
  1.28000E-002	  2.35897E-001	  2.36378E-001	  2.38490E-001	  2.41294E-001
  1.44000E-002	  2.26835E-001	  2.26512E-001	  2.30134E-001	  2.30961E-001
  1.60000E-002	  2.17993E-001	  2.18744E-001	  2.20910E-001	  2.22460E-001
  1.76000E-002	  2.09583E-001	  2.09717E-001	  2.13439E-001	  2.14425E-001
  1.92000E-002	  2.00973E-001	  2.00349E-001	  2.04630E-001	  2.06160E-001
  2.08000E-002	  1.94049E-001	  1.93893E-001	  1.96728E-001	  1.97106E-001
  2.24000E-002	  1.85913E-001	  1.85876E-001	  1.88621E-001	  1.89831E-001
  2.40000E-002	  1.78108E-001	  1.77827E-001	  1.80862E-001	  1.82936E-001
  2.56000E-002	  1.71662E-001	  1.71513E-001	  1.73678E-001	  1.75656E-001
  2.88000E-002	  1.58675E-001	  1.58173E-001	  1.60386E-001	  1.62135E-001
  3.20000E-002	  1.46294E-001	  1.45860E-001	  1.47690E-001	  1.49904E-001
  3.52000E-002	  1.35611E-001	  1.35506E-001	  1.37412E-001	  1.38035E-001
  3.84000E-002	  1.25387E-001	  1.24772E-001	  1.26575E-001	  1.27334E-001
  4.16000E-002	  1.15673E-001	  1.15343E-001	  1.17058E-001	  1.18428E-001
  4.48000E-002	  1.06699E-001	  1.06362E-001	  1.08085E-001	  1.08735E-001
  4.80000E-002	  9.86478E-002	  9.82165E-002	  1.00024E-001	  1.00850E-001
  5.12000E-002	  9.10519E-002	  9.12187E-002	  9.23625E-002	  9.32913E-002
  5.76000E-002	  7.83608E-002	  7.81328E-002	  7.88114E-002	  7.98110E-002
  6.40000E-002	  6.65415E-002	  6.63913E-002	  6.79567E-002	  6.84123E-002
  7.04000E-002	  5.70915E-002	  5.69751E-002	  5.81633E-002	  5.74443E-002
  7.68000E-002	  4.88343E-002	  4.86951E-002	  4.96107E-002	  4.98993E-002
  8.32000E-002	  4.17511E-002	  4.21076E-002	  4.19826E-002	  4.27946E-002
  8.96000E-002	  3.61303E-002	  3.62238E-002	  3.65363E-002	  3.64220E-002
  9.60000E-002	  3.06584E-002	  3.08509E-002	  3.15638E-002	  3.13333E-002
  1.02400E-001	  2.65452E-002	  2.66899E-002	  2.66600E-002	  2.68257E-002
  1.15200E-001	  1.95254E-002	  1.95617E-002	  1.96685E-002	  1.98966E-002
  1.28000E-001	  1.41685E-002	  1.39837E-002	  1.44264E-002	  1.43275E-002
  1.40800E-001	  1.05971E-002	  1.05474E-002	  1.04686E-002	  1.08354E-002
  1.53600E-001	  7.83722E-003	  7.90645E-003	  7.62541E-003	  8.06716E-003
  1.66400E-001	  5.73177E-003	  5.86126E-003	  5.29505E-003	  6.13186E-003
  1.79200E-001	  4.30813E-003	  4.59867E-003	  4.11439E-003	  4.60930E-003
  1.92000E-001	  3.37580E-003	  3.53092E-003	  3.05430E-003	  3.51867E-003
  2.04800E-001	  2.62024E-003	  2.69088E-003	  2.69701E-003	  2.52148E-003
  2.30400E-001	  1.58452E-003	  1.54619E-003	  1.32199E-003	  1.57766E-003
  2.56000E-001	  6.79556E-004	  7.31459E-004	  5.67919E-004	  7.30541E-004
  2.81600E-001	  4.83050E-004	  5.68954E-004	  4.31930E-004	  4.93160E-004
  3.07200E-001	  2.18864E-004	  4.87955E-004	  9.35100E-005	  1.08887E-004
  3.32800E-001	  3.08877E-004	  5.63416E-004	  2.88906E-004	  1.22067E-004
  3.58400E-001	  2.69002E-004	  1.81944E-004	  5.56750E-004	  1.17883E-004
  3.84000E-001	  4.29276E-004	  5.70751E-004	  6.70964E-004	  2.28516E-004
  4.09600E-001	  4.95915E-004	  6.27591E-004	  8.15974E-004	  3.87573E-004
  4.60800E-001	  1.67074E-004	  3.58403E-006	  2.08139E-004	 -3.55056E-005
  5.12000E-001	  7.61121E-005	  2.72726E-004	  3.60925E-004	 -1.39545E-004
  5.63200E-001	  4.96105E-004	  7.78803E-004	  4.95987E-004	  5.32538E-004
  6.14400E-001	  4.78808E-004	  5.86935E-004	  4.33372E-004	  6.33747E-004
  6.65600E-001	  4.38648E-004	  7.42732E-004	  3.46571E-004	  3.68070E-004
  7.16800E-001	  1.28781E-004	  1.52409E-004	  4.29944E-004	  6.49837E-005
  7.68000E-001	  5.41739E-005	  9.70090E-005	  2.14348E-004	  1.41497E-004
  8.19200E-001	  1.40780E-004	  3.08361E-004	  2.63660E-004	  9.21587E-007
  9.21600E-001	  2.48919E-004	  3.88165E-004	  4.98498E-004	  1.11390E-004
  1.02400E+000	 -2.67275E-005	  1.28591E-005	 -1.48190E-004	 -5.10533E-005
  1.12640E+000	 -3.99229E-004	 -2.87415E-004	 -2.14752E-004	 -2.65523E-004
  1.22880E+000	  2.93386E-005	 -5.39720E-005	 -3.57202E-005	 -1.23591E-005
  1.33120E+000	 -4.52222E-005	  5.27955E-005	 -6.67998E-005	  4.07279E-005
  1.43360E+000	  2.39224E-005	 -9.14934E-006	 -1.00154E-004	  1.83590E-004
  1.53600E+000	  6.52709E-005	  2.40105E-004	  5.04296E-005	  3.81302E-005
  1.63840E+000	  1.42784E-004	  2.56794E-004	  3.67610E-005	  1.91192E-004
  1.84320E+000	 -1.48029E-004	 -9.52422E-005	 -1.94771E-004	  5.85572E-005
  2.04800E+000	  2.15313E-004	  1.28243E-004	  3.05998E-004	  1.57647E-004
  2.25280E+000	  8.54102E-005	  3.16423E-005	  3.13619E-004	 -5.88631E-005
  2.45760E+000	 -1.42934E-004	 -8.59924E-005	 -2.23607E-004	 -1.01659E-004
  2.66240E+000	 -2.54935E-005	  2.94416E-005	 -1.35431E-004	  1.49422E-004
  2.86720E+000	  1.41054E-004	  2.90287E-004	  6.03144E-005	  2.02321E-004
  3.07200E+000	  1.37540E-004	  4.78149E-004	  1.00006E-004	  1.36071E-004
  3.27680E+000	  2.16623E-004	  2.47871E-004	  1.90797E-004	  9.07961E-005
  3.68640E+000	 -8.12795E-005	 -8.39326E-005	  1.52387E-005	 -1.93677E-004
  4.09600E+000	  1.97390E-004	  3.34258E-004	  2.57866E-004	  9.48911E-005
  4.50560E+000	  3.40330E-004	  4.32308E-004	  4.36358E-004	  3.09062E-004
  4.91520E+000	  5.51013E-005	  8.07440E-005	  2.91770E-005	  1.56222E-004
  5.32480E+000	  9.36357E-005	  1.00253E-004	  1.93349E-004	 -3.31529E-007
  5.73440E+000	 -3.17182E-004	 -2.51465E-004	 -1.70634E-004	 -3.69120E-004
  6.14400E+000	 -3.89934E-004	 -3.77887E-004	 -3.56041E-004	 -4.09825E-004
  6.55360E+000	 -4.44224E-005	 -8.92276E-005	 -5.17090E-005	  2.67372E-005
  7.37280E+000	 -9.61310E-005	 -1.37998E-004	 -1.71593E-004	 -4.10269E-005
  8.19200E+000	 -1.94118E-004	 -2.16061E-004	 -2.06618E-004	 -1.63127E-004
  9.01120E+000	  8.45468E-005	  5.20035E-005	  2.56869E-004	 -7.63977E-007
  9.83040E+000	  2.52709E-005	  7.53977E-005	  1.69802E-004	 -8.04057E-005
  1.06496E+001	  1.01705E-005	 -2.68683E-005	 -8.73612E-005	  5.41362E-005
  1.14688E+001	 -1.58935E-004	 -8.72981E-005	 -2.89004E-004	 -2.02802E-005
  1.22880E+001	 -5.44877E-005	  2.54226E-005	 -1.21136E-004	  1.20429E-005
  1.31072E+001	  2.80098E-005	  8.09402E-005	  6.51121E-005	  1.76495E-005
  1.47456E+001	 -1.25442E-004	 -1.02648E-004	 -1.19923E-004	 -1.16316E-004
  1.63840E+001	  1.70974E-005	  3.44430E-005	 -4.90811E-006	  3.78727E-005
  1.80224E+001	 -1.79366E-004	 -1.66606E-004	 -1.78699E-004	 -1.71754E-004
  1.96608E+001	 -1.94305E-005	 -7.93233E-005	  1.15098E-005	 -3.75055E-005
  2.12992E+001	  1.22131E-004	  9.29692E-005	  1.07277E-004	  1.29587E-004
  2.29376E+001	 -1.36092E-005	 -5.36004E-005	 -3.91412E-005	 -8.29447E-008
  2.45760E+001	 -8.34890E-005	 -6.26555E-005	 -1.96780E-005	 -1.94584E-004
  2.62144E+001	 -3.39814E-005	 -2.87146E-005	 -8.54378E-006	 -6.56984E-005
  2.94912E+001	 -1.59918E-005	 -7.90921E-006	 -3.49487E-005	  1.03283E-005
  3.27680E+001	 -3.98266E-005	 -7.21167E-006	 -9.18258E-005	 -1.36542E-005
  3.60448E+001	  7.66134E-005	  7.37990E-005	  3.31233E-005	  1.30122E-004
  3.93216E+001	  2.41699E-005	  5.37717E-005	  1.22689E-005	  4.82970E-005
  4.25984E+001	  2.56988E-005	 -7.37649E-006	  2.79804E-005	  1.24145E-005
  4.58752E+001	 -3.89826E-005	 -5.04338E-005	 -1.17039E-005	 -2.70253E-005
  4.91520E+001	  5.39859E-005	  9.54048E-005	  5.39519E-005	  4.26036E-005
  5.24288E+001	  4.67839E-005	  4.87425E-005	  4.51973E-005	  6.06408E-005
  5.89824E+001	  3.35948E-005	  4.03278E-005	  5.17550E-005	  2.55399E-005
  6.55360E+001	 -4.49414E-005	 -3.94892E-005	 -4.46099E-005	 -4.73584E-005
  7.20896E+001	  2.44368E-005	  3.80158E-005	  6.96743E-006	  3.63435E-005
  7.86432E+001	 -1.80652E-005	 -1.53563E-006	 -1.27899E-005	 -3.51925E-005
  8.51968E+001	  1.45552E-005	  3.43360E-005	  1.47668E-006	  3.43592E-005
  9.17504E+001	 -1.03298E-004	 -8.61520E-005	 -9.60235E-005	 -8.39036E-005
  9.83040E+001	  3.90818E-005	  7.00021E-005	  5.29946E-005	  1.12025E-006
  1.04858E+002	 -2.69667E-005	  1.21518E-005	 -1.75527E-005	 -3.93516E-005
  1.17965E+002	 -1.91595E-005	 -2.38448E-005	 -1.94106E-005	 -3.09034E-005
  1.31072E+002	 -3.93682E-005	 -4.75918E-005	 -6.04614E-005	 -1.34658E-005
  1.44179E+002	 -6.14795E-005	 -3.80968E-005	 -5.44120E-005	 -6.14479E-005
  1.57286E+002	 -5.04800E-005	 -8.22452E-005	 -5.45590E-005	 -4.58416E-005
  1.70394E+002	 -3.95217E-006	 -2.44914E-005	 -8.01795E-006	  1.44437E-005
  1.83501E+002	 -2.87847E-005	 -1.06285E-005	 -5.36233E-005	  3.77266E-006
  1.96608E+002	  2.34138E-005	  3.42189E-005	  4.19617E-005	  4.40180E-006
  2.09715E+002	  2.05420E-005	  2.25448E-005	  2.48846E-005	  1.81558E-005
  2.35930E+002	 -1.01726E-005	 -1.36178E-005	 -2.06520E-005	 -6.94866E-006
  2.62144E+002	 -2.66485E-005	 -2.69415E-005	 -2.59240E-005	 -3.33791E-005
  2.88358E+002	 -2.78652E-006	 -5.23978E-006	  1.57498E-006	 -1.83013E-006
  3.14573E+002	  3.38316E-005	  3.70558E-005	  3.79941E-005	  2.67986E-005
  3.40787E+002	  1.51010E-005	  2.36715E-005	  2.36986E-005	  4.38293E-006
  3.67002E+002	  4.61432E-006	 -8.52705E-006	  1.36623E-005	 -2.29786E-006
  3.93216E+002	  1.55039E-005	  9.58362E-006	  2.31808E-005	  9.53822E-006
  4.19430E+002	 -1.33334E-005	 -1.06030E-005	 -2.91966E-006	 -2.37811E-005
  4.71859E+002	  7.11097E-006	  9.82558E-006	  6.95712E-006	  9.44883E-006
  5.24288E+002	 -6.49081E-006	  1.71796E-006	 -1.01661E-005	 -6.95205E-007
  5.76717E+002	  5.44387E-008	 -5.00986E-006	 -2.65860E-006	  5.91929E-007
  6.29146E+002	 -2.13025E-005	 -2.78902E-005	 -2.51713E-005	 -1.77671E-005
  6.81574E+002	 -8.12742E-006	 -2.30193E-005	 -9.74647E-006	 -8.36128E-006
  7.34003E+002	 -2.80546E-005	 -2.45100E-005	 -2.20965E-005	 -2.67235E-005
  7.86432E+002	  1.37659E-005	  6.40500E-006	  1.26660E-005	  1.47346E-005
  8.38861E+002	 -9.85713E-006	 -5.56110E-006	 -1.44065E-005	 -1.30806E-005
  9.43718E+002	 -2.82915E-006	 -3.39671E-006	 -6.49374E-006	 -2.20199E-006
  1.04858E+003	 -1.82113E-005	 -1.27406E-005	 -1.11588E-005	 -1.76947E-005
  1.15343E+003	  1.74032E-005	  1.71173E-005	  1.56041E-005	  2.09850E-005
  1.25829E+003	  2.00471E-005	  1.92414E-005	  1.72190E-005	  2.51028E-005
  1.36315E+003	  7.31240E-006	  4.74418E-006	  1.57572E-005	  3.85088E-006
  1.46801E+003	 -7.03494E-006	 -1.68567E-006	 -1.91505E-006	 -1.56749E-005
  1.57286E+003	 -3.46075E-006	 -5.23893E-006	 -1.27250E-005	  1.64016E-006
  1.67772E+003	  9.29159E-006	  5.62241E-006	  1.38310E-005	  7.56021E-006
  1.88744E+003	  8.32091E-006	  1.17968E-005	  9.69138E-006	  7.31550E-006
  2.09715E+003	 -1.27940E-006	 -1.00634E-005	  4.43458E-006	 -1.65936E-006
  2.30687E+003	 -2.84411E-006	 -2.29485E-006	 -1.28924E-006	 -3.02142E-007
  2.51658E+003	  1.11804E-006	 -3.85917E-006	  2.64771E-006	  2.24333E-006
  2.72630E+003	 -4.31315E-006	 -9.90665E-006	 -2.61264E-006	 -9.25755E-006
  2.93601E+003	  1.16539E-005	  9.94940E-006	  1.07925E-005	  1.60807E-005
  3.14573E+003	 -3.43792E-006	  3.01236E-006	 -3.01611E-006	 -2.82858E-006
  3.35544E+003	  2.76243E-007	  3.60854E-006	  2.91544E-006	  3.08046E-007
  3.77487E+003	 -3.03357E-006	 -5.28263E-006	 -1.79761E-007	 -3.52518E-006
  4.19430E+003	 -5.78185E-007	 -2.61579E-006	 -2.38051E-006	 -1.93721E-006
  4.61373E+003	  9.12976E-006	  1.36187E-005	  1.05145E-005	  6.43883E-006
  5.03317E+003	 -1.82520E-006	 -5.92884E-006	 -4.51011E-006	  2.86588E-006
  5.45260E+003	 -6.24180E-006	 -4.32624E-006	 -7.33366E-006	 -6.28588E-006
  5.87203E+003	 -9.24700E-006	 -9.56725E-006	 -6.87701E-006	 -1.28307E-005
  6.29146E+003	  4.39595E-006	  6.97754E-006	  6.60138E-006	  6.74806E-006
  6.71089E+003	 -8.54221E-007	  1.87890E-006	 -1.37077E-006	 -5.21991E-007
  7.54975E+003	 -2.67344E-007	 -2.41264E-006	  1.64383E-006	 -1.90581E-006
  8.38861E+003	  7.26242E-006	  7.09494E-006	  9.80005E-006	  5.01127E-006
  9.22747E+003	 -9.75269E-006	 -9.74032E-006	 -9.73834E-006	 -7.91890E-006
  1.00663E+004	 -1.28591E-006	 -7.57433E-007	 -3.46130E-006	 -7.33058E-007
  1.09052E+004	 -1.01991E-005	 -1.05560E-005	 -7.54299E-006	 -9.33647E-006
  1.17441E+004	  4.91039E-006	  4.78939E-006	  3.76883E-006	  6.46988E-006

"Count Rate"
       0.19531	     231.68280	     273.50916	     231.68280	     273.50916
       0.39063	     223.84164	     271.07800	     223.84164	     271.07800
       0.58594	     232.98285	     276.43680	     232.98285	     276.43680
       0.78125	     230.37766	     276.60571	     230.37766	     276.60571
       0.97656	     232.45566	     275.91473	     232.45566	     275.91473
       1.17188	     225.86847	     271.54376	     225.86847	     271.54376
       1.36719	     227.92088	     272.19379	     227.92088	     272.19379
       1.56250	     233.58679	     277.67029	     233.58679	     277.67029
       1.75781	     231.23241	     280.40344	     231.23241	     280.40344
       1.95313	     232.58873	     277.91086	     232.58873	     277.91086
       2.14844	     233.32065	     278.73489	     233.32065	     278.73489
       2.34375	     230.08591	     275.35684	     230.08591	     275.35684
       2.53906	     227.28111	     270.80673	     227.28111	     270.80673
       2.73438	     231.27335	     276.07339	     231.27335	     276.07339
       2.92969	     230.46466	     275.30566	     230.46466	     275.30566
       3.12500	     231.54973	     277.81360	     231.54973	     277.81360
       3.32031	     223.38100	     266.46133	     223.38100	     266.46133
       3.51563	     232.71669	     276.60059	     232.71669	     276.60059
       3.71094	     230.20876	     274.06705	     230.20876	     274.06705
       3.90625	     225.72005	     268.35507	     225.72005	     268.35507
       4.10156	     228.19728	     275.85333	     228.19728	     275.85333
       4.29688	     228.74493	     273.04340	     228.74493	     273.04340
       4.49219	     231.36035	     273.75485	     231.36035	     273.75485
       4.68750	     227.20946	     271.23666	     227.20946	     271.23666
       4.88281	     228.77563	     274.02609	     228.77563	     274.02609
       5.07813	     230.16269	     274.93204	     230.16269	     274.93204
       5.27344	     230.31624	     274.93204	     230.31624	     274.93204
       5.46875	     227.81853	     269.06653	     227.81853	     269.06653
       5.66406	     225.22868	     267.98657	     225.22868	     267.98657
       5.85938	     226.60550	     268.45746	     226.60550	     268.45746
       6.05469	     232.55803	     276.42657	     232.55803	     276.42657
       6.25000	     230.93555	     275.71512	     230.93555	     275.71512
       6.44531	     231.62651	     277.61911	     231.62651	     277.61911
       6.64063	     226.49802	     271.84573	     226.49802	     271.84573
       6.83594	     225.54602	     272.19888	     225.54602	     272.19888
       7.03125	     232.47102	     274.13870	     232.47102	     274.13870
       7.22656	     232.37376	     278.04904	     232.37376	     278.04904
       7.42188	     233.61238	     278.09512	     233.61238	     278.09512
       7.61719	     231.38083	     277.96716	     231.38083	     277.96716
       7.81250	     227.22992	     271.68195	     227.22992	     271.68195
       8.00781	     226.72322	     271.07288	     226.72322	     271.07288
       8.20313	     230.94066	     275.48993	     230.94066	     275.48993
       8.39844	     233.70451	     276.84116	     233.70451	     276.84116
       8.59375	     227.79294	     271.53864	     227.79294	     271.53864
       8.78906	     230.05008	     274.76825	     230.05008	     274.76825
       8.98438	     231.35011	     274.81943	     231.35011	     274.81943
       9.17969	     227.51656	     273.45798	     227.51656	     273.45798
       9.37500	     229.35400	     276.06830	     229.35400	     276.06830
       9.57031	     228.52997	     271.96857	     228.52997	     271.96857
       9.76563	     227.20433	     271.02682	     227.20433	     271.02682
       9.96094	     228.25357	     272.18353	     228.25357	     272.18353
      10.15625	     228.60674	     274.80920	     228.60674	     274.80920
      10.35156	     228.44295	     273.09457	     228.44295	     273.09457
      10.54688	     229.91701	     277.68054	     229.91701	     277.68054
      10.74219	     233.59192	     276.24231	     233.59192	     276.24231
      10.93750	     232.66551	     277.49115	     232.66551	     277.49115
      11.13281	     224.95230	     268.39090	     224.95230	     268.39090
      11.32813	     230.99696	     274.27179	     230.99696	     274.27179
      11.52344	     228.38153	     275.58719	     228.38153	     275.58719
      11.71875	     234.47226	     280.13730	     234.47226	     280.13730
      11.91406	     227.33740	     274.03635	     227.33740	     274.03635
      12.10938	     227.37836	     269.18936	     227.37836	     269.18936
      12.30469	     232.27141	     277.80850	     232.27141	     277.80850
      12.50000	     225.82753	     271.85596	     225.82753	     271.85596
      12.69531	     232.88048	     280.13217	     232.88048	     280.13217
      12.89063	     232.29700	     278.25891	     232.29700	     278.25891
      13.08594	     231.49342	     275.18283	     231.49342	     275.18283
      13.28125	     230.21898	     273.46823	     230.21898	     273.46823
      13.47656	     229.75835	     273.96982	     229.75835	     273.96982
      13.67188	     227.03032	     274.37415	     227.03032	     274.37415
      13.86719	     224.87553	     266.99875	     224.87553	     266.99875
      14.06250	     234.52855	     279.29279	     234.52855	     279.29279
      14.25781	     229.08784	     270.38702	     229.08784	     270.38702
      14.45313	     234.13957	     277.37857	     234.13957	     277.37857
      14.64844	     233.47931	     275.82260	     233.47931	     275.82260
      14.84375	     230.52097	     272.29102	     230.52097	     272.29102
      15.03906	     230.07056	     275.26471	     230.07056	     275.26471
      15.23438	     225.48460	     269.56812	     225.48460	     269.56812
      15.42969	     232.36865	     276.64154	     232.36865	     276.64154
      15.62500	     231.88754	     273.85208	     231.88754	     273.85208
      15.82031	     229.05714	     274.53793	     229.05714	     274.53793
      16.01563	     234.51831	     277.93646	     234.51831	     277.93646
      16.21094	     229.15950	     271.17014	     229.15950	     271.17014
      16.40625	     234.54903	     279.69202	     234.54903	     279.69202
      16.60156	     229.36935	     271.85596	     229.36935	     271.85596
      16.79688	     229.51779	     271.14453	     229.51779	     271.14453
      16.99219	     228.99060	     273.44775	     228.99060	     273.44775
      17.18750	     225.39247	     270.47916	     225.39247	     270.47916
      17.38281	     229.69180	     270.39728	     229.69180	     270.39728
      17.57813	     226.15509	     272.84378	     226.15509	     272.84378
      17.77344	     232.48637	     276.54428	     232.48637	     276.54428
      17.96875	     232.40448	     274.61981	     232.40448	     274.61981
      18.16406	     227.22481	     272.17841	     227.22481	     272.17841
      18.35938	     230.50562	     272.84891	     230.50562	     272.84891
      18.55469	     231.87218	     276.36002	     231.87218	     276.36002
      18.75000	     228.73981	     275.98129	     228.73981	     275.98129
      18.94531	     232.69110	     277.27109	     232.69110	     277.27109
      19.14063	     228.06932	     273.63712	     228.06932	     273.63712
      19.33594	     230.83318	     275.98639	     230.83318	     275.98639
      19.53125	     229.04179	     273.80090	     229.04179	     273.80090
      19.72656	     233.54073	     274.91669	     233.54073	     274.91669
      19.92188	     228.16145	     273.98004	     228.16145	     273.98004
      20.11719	     228.89848	     274.22061	     228.89848	     274.22061
      20.31250	     230.45955	     273.82651	     230.45955	     273.82651
      20.50781	     232.89072	     278.78098	     232.89072	     278.78098
      20.70313	     226.81535	     268.17593	     226.81535	     268.17593
      20.89844	     232.32771	     276.97934	     232.32771	     276.97934
      21.09375	     232.12297	     278.36639	     232.12297	     278.36639
      21.28906	     227.73152	     271.70242	     227.73152	     271.70242
      21.48438	     230.77176	     275.41827	     230.77176	     275.41827
      21.67969	     232.32771	     276.09387	     232.32771	     276.09387
      21.87500	     231.86707	     274.49698	     231.86707	     274.49698
      22.07031	     231.68793	     274.18988	     231.68793	     274.18988
      22.26563	     229.54338	     274.55328	     229.54338	     274.55328
      22.46094	     233.55609	     278.11047	     233.55609	     278.11047
      22.65625	     229.90677	     273.48358	     229.90677	     273.48358
      22.85156	     230.71545	     274.14896	     230.71545	     274.14896
      23.04688	     235.40378	     279.23648	     235.40378	     279.23648
      23.24219	     230.27528	     275.75607	     230.27528	     275.75607
      23.43750	     227.98232	     273.20718	     227.98232	     273.20718
      23.63281	     226.91260	     269.74213	     226.91260	     269.74213
      23.82813	     227.67522	     271.57446	     227.67522	     271.57446
      24.02344	     230.90483	     273.73438	     230.90483	     273.73438
      24.21875	     227.00984	     269.58859	     227.00984	     269.58859
      24.41406	     233.01355	     276.26791	     233.01355	     276.26791
      24.60938	     229.77882	     273.35562	     229.77882	     273.35562
      24.80469	     226.37518	     268.09918	     226.37518	     268.09918
      25.00000	     235.09157	     278.45853	     235.09157	     278.45853
      25.19531	     229.71739	     275.39267	     229.71739	     275.39267
      25.39063	     226.64644	     270.95004	     226.64644	     270.95004
      25.58594	     228.64256	     272.82330	     228.64256	     272.82330
      25.78125	     226.85118	     268.37045	     226.85118	     268.37045
      25.97656	     229.98866	     273.75995	     229.98866	     273.75995
      26.17188	     228.56067	     273.14578	     228.56067	     273.14578
      26.36719	     232.00014	     275.64346	     232.00014	     275.64346
      26.56250	     227.21970	     269.90079	     227.21970	     269.90079
      26.75781	     230.25993	     276.29349	     230.25993	     276.29349
      26.95313	     231.98990	     273.38632	     231.98990	     273.38632
      27.14844	     229.69180	     270.23349	     229.69180	     270.23349
      27.34375	     230.53632	     271.63589	     230.53632	     271.63589
      27.53906	     231.62138	     273.40167	     231.62138	     273.40167
      27.73438	     229.88118	     273.43750	     229.88118	     273.43750
      27.92969	     232.51707	     275.44897	     232.51707	     275.44897
      28.12500	     229.74298	     275.28009	     229.74298	     275.28009
      28.32031	     227.66498	     272.40875	     227.66498	     272.40875
      28.51563	     228.29964	     272.38315	     228.29964	     272.38315
      28.71094	     223.83141	     264.66483	     223.83141	     264.66483
      28.90625	     231.39107	     275.63324	     231.39107	     275.63324
      29.10156	     232.74228	     279.70737	     232.74228	     279.70737
      29.29688	     232.32771	     275.64346	     232.32771	     275.64346
      29.49219	     228.43271	     269.68582	     228.43271	     269.68582
      29.68750	     232.54268	     272.19888	     232.54268	     272.19888
      29.88281	     231.20680	     274.65054	     231.20680	     274.65054
      30.07813	     230.73080	     276.26279	     230.73080	     276.26279
      30.27344	     229.35912	     272.40363	     229.35912	     272.40363
      30.46875	     226.91260	     272.15796	     226.91260	     272.15796
      30.66406	     228.22798	     271.94809	     228.22798	     271.94809
      30.85938	     230.56703	     273.36584	     230.56703	     273.36584
      31.05469	     232.56827	     278.71954	     232.56827	     278.71954
      31.25000	     230.88948	     277.64984	     230.88948	     277.64984
      31.44531	     233.23364	     275.89426	     233.23364	     275.89426
      31.64063	     227.40395	     270.85278	     227.40395	     270.85278
      31.83594	     229.70204	     272.77213	     229.70204	     272.77213
      32.03125	     224.28181	     264.14276	     224.28181	     264.14276
      32.22656	     225.00349	     269.11771	     225.00349	     269.11771
      32.42188	     227.15826	     270.72482	     227.15826	     270.72482
      32.61719	     228.67839	     273.20718	     228.67839	     273.20718
      32.81250	     230.95601	     276.12460	     230.95601	     276.12460
      33.00781	     231.35011	     278.62741	     231.35011	     278.62741
      33.20313	     236.45813	     277.97739	     236.45813	     277.97739
      33.39844	     231.50879	     274.53281	     231.50879	     274.53281
      33.59375	     232.39937	     275.46432	     232.39937	     275.46432
      33.78906	     227.31694	     270.38702	     227.31694	     270.38702
      33.98438	     228.75517	     275.58206	     228.75517	     275.58206
      34.17969	     230.96625	     273.01782	     230.96625	     273.01782
      34.37500	     231.76982	     274.62494	     231.76982	     274.62494
      34.57031	     231.68280	     281.61136	     231.68280	     281.61136
      34.76563	     225.99643	     269.94174	     225.99643	     269.94174
      34.96094	     232.22534	     272.11188	     232.22534	     272.11188
      35.15625	     233.11079	     277.27618	     233.11079	     277.27618
      35.35156	     232.68086	     278.13095	     232.68086	     278.13095
      35.54688	     228.01302	     267.95074	     228.01302	     267.95074
      35.74219	     229.08273	     276.70294	     229.08273	     276.70294
      35.93750	     236.28412	     279.88651	     236.28412	     279.88651
      36.13281	     232.81906	     278.12582	     232.81906	     278.12582
      36.32813	     231.45248	     275.84308	     231.45248	     275.84308
      36.52344	     227.95160	     274.24106	     227.95160	     274.24106
      36.71875	     229.93236	     275.43362	     229.93236	     275.43362
      36.91406	     229.54338	     272.85403	     229.54338	     272.85403
      37.10938	     229.96307	     270.79648	     229.96307	     270.79648
      37.30469	     230.75641	     272.62372	     230.75641	     272.62372
      37.50000	     234.81517	     279.81485	     234.81517	     279.81485
      37.69531	     230.98672	     275.90451	     230.98672	     275.90451
      37.89063	     232.86513	     275.81750	     232.86513	     275.81750
      38.08594	     233.29506	     275.16748	     233.29506	     275.16748
      38.28125	     232.34306	     274.86038	     232.34306	     274.86038
      38.47656	     226.94330	     270.07993	     226.94330	     270.07993
      38.67188	     232.17928	     276.61081	     232.17928	     276.61081
      38.86719	     230.42372	     273.36075	     230.42372	     273.36075
      39.06250	     230.73593	     272.93079	     230.73593	     272.93079
      39.25781	     230.25481	     273.19183	     230.25481	     273.19183
      39.45313	     231.69304	     276.90256	     231.69304	     276.90256
      39.64844	     229.35912	     277.16360	     229.35912	     277.16360
      39.84375	     226.84094	     274.47141	     226.84094	     274.47141
      40.03906	     228.08980	     270.23859	     228.08980	     270.23859
      40.23438	     231.09932	     275.87381	     231.09932	     275.87381
      40.42969	     231.02255	     275.60764	     231.02255	     275.60764
      40.62500	     229.90166	     274.48163	     229.90166	     274.48163
      40.82031	     228.64769	     270.96539	     228.64769	     270.96539
      41.01563	     225.95547	     271.44138	     225.95547	     271.44138
      41.21094	     225.34641	     270.38190	     225.34641	     270.38190
      41.40625	     229.15950	     271.91739	     229.15950	     271.91739
      41.60156	     229.36935	     272.17841	     229.36935	     272.17841
      41.79688	     231.96942	     272.74142	     231.96942	     272.74142
      41.99219	     236.02309	     280.20383	     236.02309	     280.20383
      42.18750	     227.19409	     273.49380	     227.19409	     273.49380
      42.38281	     228.95477	     276.31909	     228.95477	     276.31909
      42.57813	     228.65791	     272.99222	     228.65791	     272.99222
      42.77344	     229.12367	     275.25961	     229.12367	     275.25961
      42.96875	     228.67839	     273.14066	     228.67839	     273.14066
      43.16406	     229.54338	     276.35492	     229.54338	     276.35492
      43.35938	     229.25676	     273.08948	     229.25676	     273.08948
      43.55469	     228.58115	     272.59299	     228.58115	     272.59299
      43.75000	     226.50826	     269.04092	     226.50826	     269.04092
      43.94531	     226.89725	     272.77725	     226.89725	     272.77725
      44.14063	     228.04884	     272.40363	     228.04884	     272.40363
      44.33594	     228.90359	     273.16623	     228.90359	     273.16623
      44.53125	     228.49925	     273.86743	     228.49925	     273.86743
      44.72656	     231.60092	     276.67224	     231.60092	     276.67224
      44.92188	     228.00790	     270.68900	     228.00790	     270.68900
      45.11719	     230.21387	     272.37802	     230.21387	     272.37802
      45.31250	     227.61380	     272.71072	     227.61380	     272.71072
      45.50781	     234.07303	     278.05417	     234.07303	     278.05417
      45.70313	     222.04514	     264.01993	     222.04514	     264.01993
      45.89844	     225.51530	     273.95956	     225.51530	     273.95956
      46.09375	     227.26575	     269.67560	     227.26575	     269.67560
      46.28906	     224.70663	     270.13110	     224.70663	     270.13110
      46.48438	     231.25800	     276.32932	     231.25800	     276.32932
      46.67969	     231.89265	     275.46432	     231.89265	     275.46432
      46.87500	     231.18121	     274.80920	     231.18121	     274.80920
      47.07031	     227.47560	     271.90717	     227.47560	     271.90717
      47.26563	     228.67839	     272.91544	     228.67839	     272.91544
      47.46094	     227.76735	     269.47598	     227.76735	     269.47598
      47.65625	     227.85435	     272.32172	     227.85435	     272.32172
      47.85156	     232.45566	     277.69077	     232.45566	     277.69077
      48.04688	     229.97842	     275.46945	     229.97842	     275.46945
      48.24219	     231.55997	     277.73685	     231.55997	     277.73685
      48.43750	     229.77370	     277.01517	     229.77370	     277.01517
      48.63281	     225.81729	     268.79526	     225.81729	     268.79526
      48.82813	     231.53438	     276.49823	     231.53438	     276.49823
      49.02344	     234.72816	     277.72659	     234.72816	     277.72659
      49.21875	     229.45636	     274.14896	     229.45636	     274.14896
      49.41406	     233.07497	     275.12140	     233.07497	     275.12140
      49.60938	     232.47614	     280.37274	     232.47614	     280.37274

Monitor Diode	1632742.14
"StandardDeviation"
  3.12500E-006	  1.27158E-002
  6.25000E-006	  1.27159E-002
  9.37500E-006	  1.27158E-002
  1.25000E-005	  1.27159E-002
  1.56250E-005	  1.27159E-002
  1.87500E-005	  1.27157E-002
  2.18750E-005	  1.27159E-002
  2.50000E-005	  1.27159E-002
  2.81250E-005	  1.26417E-002
  3.12500E-005	  1.27158E-002
  3.43750E-005	  1.26348E-002
  3.75000E-005	  1.26951E-002
  4.06250E-005	  1.27159E-002
  4.37500E-005	  1.26206E-002
  4.68750E-005	  1.26933E-002
  5.00000E-005	  8.97788E-003
  5.62500E-005	  8.96776E-003
  6.25000E-005	  8.95979E-003
  6.87500E-005	  8.96936E-003
  7.50000E-005	  8.96041E-003
  8.12500E-005	  8.99134E-003
  8.75000E-005	  8.94376E-003
  9.37500E-005	  8.95348E-003
  1.00000E-004	  6.35327E-003
  1.12500E-004	  6.36186E-003
  1.25000E-004	  6.34444E-003
  1.37500E-004	  6.34312E-003
  1.50000E-004	  6.36487E-003
  1.62500E-004	  6.36441E-003
  1.75000E-004	  6.35828E-003
  1.87500E-004	  6.34906E-003
  2.00000E-004	  4.51675E-003
  2.25000E-004	  4.51405E-003
  2.50000E-004	  4.50477E-003
  2.75000E-004	  4.51440E-003
  3.00000E-004	  4.50307E-003
  3.25000E-004	  4.50519E-003
  3.50000E-004	  4.51191E-003
  3.75000E-004	  4.51040E-003
  4.00000E-004	  3.21634E-003
  4.50000E-004	  3.22290E-003
  5.00000E-004	  3.21709E-003
  5.50000E-004	  3.21998E-003
  6.00000E-004	  3.21884E-003
  6.50000E-004	  3.21807E-003
  7.00000E-004	  3.21563E-003
  7.50000E-004	  3.21487E-003
  8.00000E-004	  2.31468E-003
  9.00000E-004	  2.31319E-003
  1.00000E-003	  2.31398E-003
  1.10000E-003	  2.31254E-003
  1.20000E-003	  2.31133E-003
  1.30000E-003	  2.31068E-003
  1.40000E-003	  2.31029E-003
  1.50000E-003	  2.30844E-003
  1.60000E-003	  1.68898E-003
  1.80000E-003	  1.68704E-003
  2.00000E-003	  1.68706E-003
  2.20000E-003	  1.68553E-003
  2.40000E-003	  1.68553E-003
  2.60000E-003	  1.68274E-003
  2.80000E-003	  1.68259E-003
  3.00000E-003	  1.68083E-003
  3.20000E-003	  1.26314E-003
  3.60000E-003	  1.26154E-003
  4.00000E-003	  1.25932E-003
  4.40000E-003	  1.25828E-003
  4.80000E-003	  1.25634E-003
  5.20000E-003	  1.25444E-003
  5.60000E-003	  1.25282E-003
  6.00000E-003	  1.25089E-003
  6.40000E-003	  9.78801E-004
  7.20000E-003	  9.75688E-004
  8.00000E-003	  9.72810E-004
  8.80000E-003	  9.69983E-004
  9.60000E-003	  9.66932E-004
  1.04000E-002	  9.64135E-004
  1.12000E-002	  9.61344E-004
  1.20000E-002	  9.58563E-004
  1.28000E-002	  7.88624E-004
  1.44000E-002	  7.82922E-004
  1.60000E-002	  7.77837E-004
  1.76000E-002	  7.72969E-004
  1.92000E-002	  7.68028E-004
  2.08000E-002	  7.63345E-004
  2.24000E-002	  7.58562E-004
  2.40000E-002	  7.53888E-004
  2.56000E-002	  6.49771E-004
  2.88000E-002	  6.40448E-004
  3.20000E-002	  6.31994E-004
  3.52000E-002	  6.24113E-004
  3.84000E-002	  6.16608E-004
  4.16000E-002	  6.09356E-004
  4.48000E-002	  6.02629E-004
  4.80000E-002	  5.96218E-004
  5.12000E-002	  5.31716E-004
  5.76000E-002	  5.19939E-004
  6.40000E-002	  5.09883E-004
  7.04000E-002	  5.01184E-004
  7.68000E-002	  4.93480E-004
  8.32000E-002	  4.86760E-004
  8.96000E-002	  4.81148E-004
  9.60000E-002	  4.76108E-004
  1.02400E-001	  4.34653E-004
  1.15200E-001	  4.27042E-004
  1.28000E-001	  4.21062E-004
  1.40800E-001	  4.16690E-004
  1.53600E-001	  4.13210E-004
  1.66400E-001	  4.10775E-004
  1.79200E-001	  4.09505E-004
  1.92000E-001	  4.09082E-004
  2.04800E-001	  3.77038E-004
  2.30400E-001	  3.76025E-004
  2.56000E-001	  3.74632E-004
  2.81600E-001	  3.74632E-004
  3.07200E-001	  3.74632E-004
  3.32800E-001	  3.74632E-004
  3.58400E-001	  3.74632E-004
  3.84000E-001	  3.74632E-004
  4.09600E-001	  3.37829E-004
  4.60800E-001	  3.37829E-004
  5.12000E-001	  3.37829E-004
  5.63200E-001	  3.37829E-004
  6.14400E-001	  3.37829E-004
  6.65600E-001	  3.37829E-004
  7.16800E-001	  3.37829E-004
  7.68000E-001	  3.37829E-004
  8.19200E-001	  3.05988E-004
  9.21600E-001	  3.05988E-004
  1.02400E+000	  3.05988E-004
  1.12640E+000	  3.05988E-004
  1.22880E+000	  3.05988E-004
  1.33120E+000	  3.05988E-004
  1.43360E+000	  3.05988E-004
  1.53600E+000	  3.05988E-004
  1.63840E+000	  2.53298E-004
  1.84320E+000	  2.53298E-004
  2.04800E+000	  2.53298E-004
  2.25280E+000	  2.53298E-004
  2.45760E+000	  2.53298E-004
  2.66240E+000	  2.53298E-004
  2.86720E+000	  2.53298E-004
  3.07200E+000	  2.53298E-004
  3.27680E+000	  1.96705E-004
  3.68640E+000	  1.96705E-004
  4.09600E+000	  1.96705E-004
  4.50560E+000	  1.96705E-004
  4.91520E+000	  1.96705E-004
  5.32480E+000	  1.96705E-004
  5.73440E+000	  1.96705E-004
  6.14400E+000	  1.96705E-004
  6.55360E+000	  1.45921E-004
  7.37280E+000	  1.45921E-004
  8.19200E+000	  1.45921E-004
  9.01120E+000	  1.45921E-004
  9.83040E+000	  1.45921E-004
  1.06496E+001	  1.45921E-004
  1.14688E+001	  1.45921E-004
  1.22880E+001	  1.45921E-004
  1.31072E+001	  1.05601E-004
  1.47456E+001	  1.05601E-004
  1.63840E+001	  1.05601E-004
  1.80224E+001	  1.05601E-004
  1.96608E+001	  1.05601E-004
  2.12992E+001	  1.05601E-004
  2.29376E+001	  1.05601E-004
  2.45760E+001	  1.05601E-004
  2.62144E+001	  7.55270E-005
  2.94912E+001	  7.55270E-005
  3.27680E+001	  7.55270E-005
  3.60448E+001	  7.55270E-005
  3.93216E+001	  7.55270E-005
  4.25984E+001	  7.55270E-005
  4.58752E+001	  7.55270E-005
  4.91520E+001	  7.55270E-005
  5.24288E+001	  5.37081E-005
  5.89824E+001	  5.37081E-005
  6.55360E+001	  5.37081E-005
  7.20896E+001	  5.37081E-005
  7.86432E+001	  5.37081E-005
  8.51968E+001	  5.37081E-005
  9.17504E+001	  5.37081E-005
  9.83040E+001	  5.37081E-005
  1.04858E+002	  3.80843E-005
  1.17965E+002	  3.80843E-005
  1.31072E+002	  3.80843E-005
  1.44179E+002	  3.80843E-005
  1.57286E+002	  3.80843E-005
  1.70394E+002	  3.80843E-005
  1.83501E+002	  3.80843E-005
  1.96608E+002	  3.80843E-005
  2.09715E+002	  2.69675E-005
  2.35930E+002	  2.69675E-005
  2.62144E+002	  2.69675E-005
  2.88358E+002	  2.69675E-005
  3.14573E+002	  2.69675E-005
  3.40787E+002	  2.69675E-005
  3.67002E+002	  2.69675E-005
  3.93216E+002	  2.69675E-005
  4.19430E+002	  1.90822E-005
  4.71859E+002	  1.90822E-005
  5.24288E+002	  1.90822E-005
  5.76717E+002	  1.90822E-005
  6.29146E+002	  1.90822E-005
  6.81574E+002	  1.90822E-005
  7.34003E+002	  1.90822E-005
  7.86432E+002	  1.90822E-005
  8.38861E+002	  1.34979E-005
  9.43718E+002	  1.34979E-005
  1.04858E+003	  1.34979E-005
  1.15343E+003	  1.34979E-005
  1.25829E+003	  1.34979E-005
  1.36315E+003	  1.34979E-005
  1.46801E+003	  1.34979E-005
  1.57286E+003	  1.34979E-005
  1.67772E+003	  9.54613E-006
  1.88744E+003	  9.54613E-006
  2.09715E+003	  9.54613E-006
  2.30687E+003	  9.54613E-006
  2.51658E+003	  9.54613E-006
  2.72630E+003	  9.54613E-006
  2.93601E+003	  9.54613E-006
  3.14573E+003	  9.54613E-006
  3.35544E+003	  6.75073E-006
  3.77487E+003	  6.75073E-006
  4.19430E+003	  6.75073E-006
  4.61373E+003	  6.75073E-006
  5.03317E+003	  6.75073E-006
  5.45260E+003	  6.75073E-006
  5.87203E+003	  6.75073E-006
  6.29146E+003	  6.75073E-006
  6.71089E+003	  4.77369E-006
  7.54975E+003	  4.77369E-006
  8.38861E+003	  4.77369E-006
  9.22747E+003	  4.77369E-006
  1.00663E+004	  4.77369E-006
  1.09052E+004	  4.77369E-006
  1.17441E+004	  4.77369E-006
