ALV-7004 or ALV-7004/FAST Data
Date :	"3/27/2010"
Time :	"12:00:31 PM"
Samplename : 	"BSA 4 g/l in YCl3 8.3mM"
SampMemo(0) : 	""
SampMemo(1) : 	""
SampMemo(2) : 	""
SampMemo(3) : 	""
SampMemo(4) : 	""
SampMemo(5) : 	""
SampMemo(6) : 	""
SampMemo(7) : 	""
SampMemo(8) : 	""
SampMemo(9) : 	""
Temperature [K] :	     295.72261
Viscosity [cp]  :	       0.94168
Refractive Index:	       1.33200
Wavelength [nm] :	     632.80000
Angle [°]       :	     110.00000
Duration [s]    :	        50
Runs            :	         1
Mode            :	"C-CH0/1+1/0"
MeanCR0 [kHz]   :	     231.66448
MeanCR1 [kHz]   :	     276.02319
MeanCR2 [kHz]   :	       0.00000
MeanCR3 [kHz]   :	       0.00000

"Correlation"
  3.12500E-006	  6.49012E-001	  6.49133E-001	 -2.00000E+000	 -2.00000E+000
  6.25000E-006	  6.50628E-001	  6.34611E-001	 -2.00000E+000	 -2.00000E+000
  9.37500E-006	  6.73435E-001	  6.99763E-001	 -2.00000E+000	 -2.00000E+000
  1.25000E-005	  6.23707E-001	  6.05272E-001	 -2.00000E+000	 -2.00000E+000
  1.56250E-005	  6.70987E-001	  6.82264E-001	 -2.00000E+000	 -2.00000E+000
  1.87500E-005	  6.81082E-001	  6.81939E-001	 -2.00000E+000	 -2.00000E+000
  2.18750E-005	  6.59123E-001	  6.58808E-001	 -2.00000E+000	 -2.00000E+000
  2.50000E-005	  6.48589E-001	  6.46391E-001	 -2.00000E+000	 -2.00000E+000
  2.81250E-005	  6.70805E-001	  6.76443E-001	 -2.00000E+000	 -2.00000E+000
  3.12500E-005	  6.77487E-001	  6.84443E-001	 -2.00000E+000	 -2.00000E+000
  3.43750E-005	  6.44810E-001	  6.40522E-001	 -2.00000E+000	 -2.00000E+000
  3.75000E-005	  6.55557E-001	  6.33624E-001	 -2.00000E+000	 -2.00000E+000
  4.06250E-005	  6.48569E-001	  6.43753E-001	 -2.00000E+000	  9.28649E-001
  4.37500E-005	  6.67728E-001	  6.61934E-001	 -2.00000E+000	  9.85016E-001
  4.68750E-005	  6.78404E-001	  6.66541E-001	 -2.00000E+000	 -5.92976E-001
  5.00000E-005	  6.64452E-001	  6.54312E-001	 -2.00000E+000	  1.82917E+000
  5.62500E-005	  6.54038E-001	  6.38828E-001	 -2.00000E+000	  8.92842E-001
  6.25000E-005	  6.63093E-001	  6.49995E-001	 -2.00000E+000	  9.13966E-001
  6.87500E-005	  6.37265E-001	  6.35409E-001	 -1.91754E+000	  1.05567E+000
  7.50000E-005	  6.44792E-001	  6.68804E-001	  1.72314E+000	  7.03910E-001
  8.12500E-005	  6.65444E-001	  6.60952E-001	  8.49845E-001	  7.24489E-001
  8.75000E-005	  6.50881E-001	  6.45275E-001	  8.93464E-001	  7.42388E-001
  9.37500E-005	  6.67766E-001	  6.74896E-001	  8.30189E-001	  7.64913E-001
  1.00000E-004	  6.63837E-001	  6.66865E-001	  7.49268E-001	  6.99053E-001
  1.12500E-004	  6.49826E-001	  6.55726E-001	  7.64183E-001	  7.11644E-001
  1.25000E-004	  6.41629E-001	  6.34972E-001	  7.02863E-001	  7.11443E-001
  1.37500E-004	  6.54137E-001	  6.40580E-001	  6.70338E-001	  6.95879E-001
  1.50000E-004	  6.49212E-001	  6.48590E-001	  6.58616E-001	  6.89066E-001
  1.62500E-004	  6.42156E-001	  6.36722E-001	  6.46034E-001	  7.00031E-001
  1.75000E-004	  6.51610E-001	  6.50375E-001	  6.44422E-001	  6.94082E-001
  1.87500E-004	  6.46888E-001	  6.62465E-001	  6.56721E-001	  6.88455E-001
  2.00000E-004	  6.42336E-001	  6.40632E-001	  6.48902E-001	  6.82344E-001
  2.25000E-004	  6.46863E-001	  6.54734E-001	  6.40764E-001	  6.68309E-001
  2.50000E-004	  6.46351E-001	  6.42741E-001	  6.39277E-001	  6.75500E-001
  2.75000E-004	  6.45595E-001	  6.46310E-001	  6.42923E-001	  6.67336E-001
  3.00000E-004	  6.50659E-001	  6.50516E-001	  6.36333E-001	  6.71771E-001
  3.25000E-004	  6.39727E-001	  6.36386E-001	  6.39538E-001	  6.61042E-001
  3.50000E-004	  6.44973E-001	  6.44913E-001	  6.37665E-001	  6.63035E-001
  3.75000E-004	  6.47388E-001	  6.44977E-001	  6.51580E-001	  6.73387E-001
  4.00000E-004	  6.42820E-001	  6.40142E-001	  6.38402E-001	  6.68002E-001
  4.50000E-004	  6.32855E-001	  6.32718E-001	  6.41608E-001	  6.62751E-001
  5.00000E-004	  6.43583E-001	  6.41241E-001	  6.48482E-001	  6.55978E-001
  5.50000E-004	  6.39415E-001	  6.42357E-001	  6.44931E-001	  6.60593E-001
  6.00000E-004	  6.33455E-001	  6.31547E-001	  6.43682E-001	  6.52308E-001
  6.50000E-004	  6.38802E-001	  6.38460E-001	  6.34229E-001	  6.57887E-001
  7.00000E-004	  6.36687E-001	  6.32891E-001	  6.36066E-001	  6.49900E-001
  7.50000E-004	  6.30189E-001	  6.30544E-001	  6.31684E-001	  6.50441E-001
  8.00000E-004	  6.30868E-001	  6.29891E-001	  6.33021E-001	  6.46688E-001
  9.00000E-004	  6.26269E-001	  6.26273E-001	  6.34004E-001	  6.42652E-001
  1.00000E-003	  6.22967E-001	  6.22748E-001	  6.28521E-001	  6.39990E-001
  1.10000E-003	  6.21131E-001	  6.17184E-001	  6.25691E-001	  6.37570E-001
  1.20000E-003	  6.18459E-001	  6.17144E-001	  6.19111E-001	  6.31355E-001
  1.30000E-003	  6.17565E-001	  6.18101E-001	  6.16255E-001	  6.31674E-001
  1.40000E-003	  6.06536E-001	  6.05092E-001	  6.07302E-001	  6.29003E-001
  1.50000E-003	  6.09964E-001	  6.10121E-001	  6.06646E-001	  6.23326E-001
  1.60000E-003	  6.06158E-001	  6.05792E-001	  6.06222E-001	  6.18857E-001
  1.80000E-003	  5.97873E-001	  5.97301E-001	  6.01450E-001	  6.12468E-001
  2.00000E-003	  5.91982E-001	  5.92369E-001	  5.91283E-001	  6.08982E-001
  2.20000E-003	  5.87905E-001	  5.86313E-001	  5.81354E-001	  6.00500E-001
  2.40000E-003	  5.80989E-001	  5.81464E-001	  5.82383E-001	  5.94984E-001
  2.60000E-003	  5.74740E-001	  5.73921E-001	  5.76273E-001	  5.88568E-001
  2.80000E-003	  5.68741E-001	  5.67095E-001	  5.74032E-001	  5.83793E-001
  3.00000E-003	  5.65587E-001	  5.65366E-001	  5.66047E-001	  5.76460E-001
  3.20000E-003	  5.55555E-001	  5.55175E-001	  5.60830E-001	  5.70922E-001
  3.60000E-003	  5.46560E-001	  5.47075E-001	  5.51465E-001	  5.56901E-001
  4.00000E-003	  5.36886E-001	  5.36806E-001	  5.39932E-001	  5.47324E-001
  4.40000E-003	  5.23523E-001	  5.23660E-001	  5.28417E-001	  5.33625E-001
  4.80000E-003	  5.14261E-001	  5.14513E-001	  5.18045E-001	  5.26188E-001
  5.20000E-003	  5.03120E-001	  5.02637E-001	  5.08292E-001	  5.12840E-001
  5.60000E-003	  4.93521E-001	  4.92940E-001	  4.99373E-001	  5.04338E-001
  6.00000E-003	  4.82081E-001	  4.81749E-001	  4.90279E-001	  4.93417E-001
  6.40000E-003	  4.72814E-001	  4.71202E-001	  4.79791E-001	  4.83593E-001
  7.20000E-003	  4.55479E-001	  4.56102E-001	  4.59273E-001	  4.65012E-001
  8.00000E-003	  4.37391E-001	  4.35995E-001	  4.43353E-001	  4.46079E-001
  8.80000E-003	  4.20212E-001	  4.20983E-001	  4.24803E-001	  4.28808E-001
  9.60000E-003	  4.03611E-001	  4.04297E-001	  4.07194E-001	  4.12319E-001
  1.04000E-002	  3.86899E-001	  3.87481E-001	  3.90489E-001	  3.95495E-001
  1.12000E-002	  3.71474E-001	  3.71473E-001	  3.75047E-001	  3.80625E-001
  1.20000E-002	  3.57295E-001	  3.57211E-001	  3.61014E-001	  3.64378E-001
  1.28000E-002	  3.43263E-001	  3.43019E-001	  3.46830E-001	  3.50414E-001
  1.44000E-002	  3.16707E-001	  3.17073E-001	  3.19065E-001	  3.24970E-001
  1.60000E-002	  2.93283E-001	  2.92971E-001	  2.94788E-001	  2.98049E-001
  1.76000E-002	  2.70121E-001	  2.70624E-001	  2.74018E-001	  2.76231E-001
  1.92000E-002	  2.49275E-001	  2.49965E-001	  2.52076E-001	  2.55026E-001
  2.08000E-002	  2.30671E-001	  2.30697E-001	  2.33560E-001	  2.34138E-001
  2.24000E-002	  2.13459E-001	  2.14165E-001	  2.15723E-001	  2.17113E-001
  2.40000E-002	  1.96842E-001	  1.97355E-001	  1.97873E-001	  2.00789E-001
  2.56000E-002	  1.81824E-001	  1.82869E-001	  1.83850E-001	  1.86027E-001
  2.88000E-002	  1.55480E-001	  1.55385E-001	  1.57094E-001	  1.59643E-001
  3.20000E-002	  1.32496E-001	  1.32948E-001	  1.33173E-001	  1.35560E-001
  3.52000E-002	  1.13080E-001	  1.12931E-001	  1.14049E-001	  1.15241E-001
  3.84000E-002	  9.65689E-002	  9.66823E-002	  9.77371E-002	  9.86855E-002
  4.16000E-002	  8.24646E-002	  8.25156E-002	  8.36613E-002	  8.34250E-002
  4.48000E-002	  7.04128E-002	  7.04155E-002	  7.15088E-002	  7.22301E-002
  4.80000E-002	  5.99884E-002	  6.06950E-002	  5.93112E-002	  6.20100E-002
  5.12000E-002	  5.25217E-002	  5.26718E-002	  5.17766E-002	  5.35554E-002
  5.76000E-002	  3.82044E-002	  3.84731E-002	  3.86327E-002	  3.89688E-002
  6.40000E-002	  2.84062E-002	  2.88139E-002	  2.83362E-002	  2.87614E-002
  7.04000E-002	  2.07647E-002	  2.09917E-002	  2.13930E-002	  2.09743E-002
  7.68000E-002	  1.55008E-002	  1.56948E-002	  1.62054E-002	  1.53232E-002
  8.32000E-002	  1.07666E-002	  1.10698E-002	  1.12350E-002	  1.07510E-002
  8.96000E-002	  8.30212E-003	  8.35112E-003	  8.36423E-003	  8.25669E-003
  9.60000E-002	  6.01689E-003	  5.96538E-003	  6.43469E-003	  6.00149E-003
  1.02400E-001	  4.61867E-003	  4.70691E-003	  4.52053E-003	  5.22845E-003
  1.15200E-001	  2.42358E-003	  2.59611E-003	  2.38996E-003	  2.60712E-003
  1.28000E-001	  1.25368E-003	  1.33779E-003	  8.27230E-004	  1.68798E-003
  1.40800E-001	  6.30859E-004	  4.67387E-004	  3.02550E-004	  1.02141E-003
  1.53600E-001	  5.01070E-004	  4.27124E-004	  2.01288E-004	  7.42602E-004
  1.66400E-001	  6.43453E-004	  7.89533E-004	  5.14812E-004	  7.07957E-004
  1.79200E-001	  1.03264E-003	  1.15518E-003	  3.33127E-004	  6.99361E-004
  1.92000E-001	  8.95948E-004	  1.06551E-003	  6.67161E-004	  8.37223E-004
  2.04800E-001	  8.97554E-004	  1.12828E-003	  1.20700E-003	  8.86920E-004
  2.30400E-001	  7.23738E-004	  9.17967E-004	  7.09546E-004	  5.09325E-004
  2.56000E-001	  8.13817E-005	 -2.57682E-004	  8.01508E-004	 -4.45556E-004
  2.81600E-001	 -1.93901E-004	 -1.90994E-004	 -1.57276E-004	 -4.84184E-004
  3.07200E-001	 -8.57565E-005	  1.89430E-004	 -1.56087E-004	 -3.65379E-004
  3.32800E-001	  4.83986E-005	 -2.25021E-004	 -2.01149E-004	 -3.73620E-004
  3.58400E-001	  1.25854E-004	  4.33504E-005	  1.23880E-004	  3.92380E-004
  3.84000E-001	  1.35563E-004	  3.43690E-005	 -1.78405E-004	  5.08484E-004
  4.09600E-001	  5.42482E-005	 -6.01237E-005	 -4.50295E-005	  1.93506E-004
  4.60800E-001	 -4.31054E-004	 -5.70248E-004	 -4.13652E-004	 -2.16689E-004
  5.12000E-001	  1.23151E-004	  2.36281E-004	 -2.61487E-004	  5.20208E-005
  5.63200E-001	  1.77467E-004	  2.23111E-004	  2.68582E-004	  3.89155E-004
  6.14400E-001	 -1.83717E-004	  1.98352E-005	 -1.15364E-004	 -5.94615E-004
  6.65600E-001	  2.47572E-004	  3.20217E-004	  2.75326E-004	 -9.50416E-006
  7.16800E-001	  1.78827E-004	  3.85570E-004	  1.30788E-004	  1.69157E-004
  7.68000E-001	 -4.16122E-004	 -7.98249E-005	 -3.73026E-004	 -5.49034E-005
  8.19200E-001	 -1.74520E-004	 -8.35212E-005	 -3.44924E-004	 -1.09408E-005
  9.21600E-001	  2.60986E-004	  3.19900E-005	  2.63372E-004	  1.68723E-004
  1.02400E+000	  1.39327E-004	  1.16262E-004	  7.03709E-005	  8.16660E-005
  1.12640E+000	 -2.48851E-004	 -4.15813E-005	 -2.66032E-004	 -3.19799E-004
  1.22880E+000	 -7.03116E-004	 -6.53924E-004	 -8.70754E-004	 -4.84856E-004
  1.33120E+000	 -1.22295E-004	 -1.31744E-004	  3.24993E-005	 -8.76340E-005
  1.43360E+000	 -2.64835E-004	 -2.31947E-004	 -5.06637E-004	 -7.82106E-005
  1.53600E+000	 -2.70810E-004	 -1.94233E-004	 -4.32850E-005	 -6.13166E-004
  1.63840E+000	 -2.68052E-004	 -3.20156E-004	 -3.70588E-004	 -2.56680E-004
  1.84320E+000	 -5.46632E-006	  1.35875E-004	 -2.27916E-005	 -2.57270E-005
  2.04800E+000	 -7.55855E-005	 -1.05919E-004	  9.08064E-005	  8.28020E-005
  2.25280E+000	  2.50779E-004	  2.72624E-004	  2.02572E-004	  1.88818E-004
  2.45760E+000	  4.40312E-005	  2.25905E-004	 -1.14652E-005	  9.67790E-007
  2.66240E+000	 -2.19585E-005	 -1.06553E-004	 -2.30125E-004	  8.20056E-005
  2.86720E+000	  1.61441E-004	  1.65211E-004	  2.49748E-004	  1.51834E-004
  3.07200E+000	 -3.41290E-004	 -3.32715E-004	 -9.58986E-005	 -3.09545E-004
  3.27680E+000	 -1.47911E-004	 -1.70838E-004	 -1.64106E-005	 -2.06250E-004
  3.68640E+000	  8.20734E-005	  1.04192E-004	  5.81651E-005	  7.09565E-005
  4.09600E+000	  2.63916E-005	 -1.59909E-004	 -1.09400E-004	  2.14751E-004
  4.50560E+000	  9.08486E-005	  5.33042E-005	  3.38870E-005	  1.66605E-005
  4.91520E+000	  2.69574E-005	 -8.31265E-005	  2.33029E-006	  2.98527E-005
  5.32480E+000	 -3.49128E-005	  2.21068E-005	 -3.21156E-005	 -6.45997E-005
  5.73440E+000	  7.48284E-005	  1.43343E-004	  3.95157E-006	  2.02898E-004
  6.14400E+000	  1.05740E-004	  1.54701E-004	  5.09273E-005	  1.73316E-004
  6.55360E+000	  2.42760E-005	  7.17947E-005	  1.03847E-004	 -7.05799E-006
  7.37280E+000	  9.49593E-005	  8.96408E-005	  1.91992E-004	 -4.82058E-007
  8.19200E+000	  5.03025E-005	  1.28108E-004	  1.40493E-004	  1.06711E-004
  9.01120E+000	 -1.44632E-004	 -1.45162E-004	 -1.26556E-004	 -1.54012E-004
  9.83040E+000	  1.08932E-004	  3.15586E-005	  2.33765E-004	 -2.41058E-005
  1.06496E+001	 -9.10754E-005	 -3.59818E-005	 -3.06052E-005	 -1.85366E-004
  1.14688E+001	 -5.72793E-005	 -9.03382E-005	 -8.60309E-005	  5.30180E-005
  1.22880E+001	  1.04700E-004	  1.23124E-004	  4.28850E-005	  1.01554E-004
  1.31072E+001	  2.48627E-005	  2.06440E-005	  4.65881E-005	  3.82758E-005
  1.47456E+001	 -8.99011E-005	 -1.05489E-004	 -1.56876E-005	 -6.68169E-005
  1.63840E+001	  2.18735E-005	 -3.58529E-005	 -4.05002E-005	  5.43509E-005
  1.80224E+001	  3.04845E-005	  3.99193E-005	  2.55496E-006	  7.37094E-005
  1.96608E+001	 -6.63659E-005	 -2.13460E-005	  1.74276E-005	 -1.10433E-004
  2.12992E+001	  7.35509E-006	  1.05549E-005	 -4.99754E-006	  7.05948E-005
  2.29376E+001	 -6.41750E-005	 -7.66985E-006	  4.83410E-006	 -1.23978E-004
  2.45760E+001	  1.18283E-004	  4.97640E-005	  1.33583E-004	  1.67706E-004
  2.62144E+001	  1.14712E-004	  8.46611E-005	  1.51454E-004	  1.19721E-004
  2.94912E+001	 -8.21729E-005	 -6.25831E-005	 -4.67548E-005	 -1.14239E-004
  3.27680E+001	 -4.22341E-005	 -5.14591E-005	 -8.77453E-005	 -1.17480E-005
  3.60448E+001	 -6.60270E-005	 -7.19693E-005	 -8.20245E-005	 -7.79459E-005
  3.93216E+001	 -1.00767E-005	 -2.58732E-005	 -2.60230E-005	 -2.77635E-006
  4.25984E+001	 -1.88098E-005	  3.52904E-005	 -4.78550E-005	  3.91484E-005
  4.58752E+001	 -1.42582E-004	 -1.41832E-004	 -1.16086E-004	 -1.78215E-004
  4.91520E+001	 -6.84995E-005	 -8.32746E-005	 -3.83670E-005	 -6.36876E-005
  5.24288E+001	 -7.27400E-006	 -3.14225E-007	  1.62338E-005	  2.45997E-006
  5.89824E+001	 -5.54372E-005	 -4.46701E-005	 -8.48949E-005	 -3.26926E-005
  6.55360E+001	  1.72431E-005	  2.43570E-005	  4.87361E-005	  3.15233E-006
  7.20896E+001	  1.13713E-005	  5.70190E-006	  2.00370E-005	 -1.43511E-005
  7.86432E+001	 -1.59869E-005	 -1.39360E-005	 -3.23743E-005	 -2.09862E-005
  8.51968E+001	 -1.54824E-005	  3.69113E-006	 -7.80512E-006	 -3.72461E-005
  9.17504E+001	 -1.71436E-005	 -1.81592E-005	 -1.80599E-005	  1.42623E-005
  9.83040E+001	  1.19449E-005	  3.68254E-005	 -2.02320E-005	  8.51878E-006
  1.04858E+002	 -2.55597E-005	 -1.02824E-005	 -5.51591E-005	 -9.79545E-006
  1.17965E+002	 -2.62191E-005	 -3.64470E-005	 -3.68866E-005	 -3.13673E-005
  1.31072E+002	 -1.91547E-005	 -4.64583E-005	 -3.35452E-005	 -2.55984E-005
  1.44179E+002	  2.48626E-005	  1.08369E-005	  4.84731E-005	  9.87632E-006
  1.57286E+002	 -9.23305E-006	 -3.15946E-006	  9.29708E-006	 -6.70864E-006
  1.70394E+002	 -4.99046E-005	 -1.20479E-005	 -6.69866E-005	 -1.70741E-005
  1.83501E+002	  1.66321E-005	  1.33821E-005	  1.13661E-005	  2.45901E-005
  1.96608E+002	 -2.90766E-005	 -1.65173E-005	 -1.75589E-005	 -3.59575E-005
  2.09715E+002	  5.47244E-006	  9.07230E-006	  1.68672E-005	 -1.32515E-005
  2.35930E+002	 -1.25805E-005	 -1.11979E-005	 -3.50524E-006	 -1.71183E-005
  2.62144E+002	 -5.49804E-006	 -1.31199E-005	 -9.46073E-006	  7.69482E-006
  2.88358E+002	  1.99232E-005	  7.54499E-006	  2.11548E-005	  3.92395E-005
  3.14573E+002	 -9.28233E-006	 -5.78880E-006	  2.52057E-006	 -2.16463E-005
  3.40787E+002	  1.93272E-005	  1.13349E-005	  1.68756E-005	  2.59917E-005
  3.67002E+002	  1.13557E-005	  1.15583E-005	  1.06250E-005	  1.02212E-005
  3.93216E+002	  1.61079E-005	  3.51765E-005	  1.92454E-005	  2.38807E-005
  4.19430E+002	 -2.21185E-006	 -1.74550E-006	 -3.58272E-006	  4.57775E-006
  4.71859E+002	 -1.48652E-005	 -1.37548E-005	 -2.13092E-005	 -5.11020E-006
  5.24288E+002	 -3.35688E-006	 -4.34035E-006	 -1.70093E-006	 -1.41197E-005
  5.76717E+002	 -3.43055E-006	 -3.25368E-006	 -1.13695E-005	 -3.61061E-006
  6.29146E+002	 -7.19271E-007	 -1.92668E-006	  4.31098E-006	  6.35292E-006
  6.81574E+002	  1.02262E-005	  1.10699E-005	  9.66816E-006	  1.04483E-005
  7.34003E+002	  4.48787E-006	  5.51961E-006	 -2.83943E-007	  1.33994E-006
  7.86432E+002	  1.16244E-005	  9.79202E-006	  9.89515E-006	  8.89390E-006
  8.38861E+002	  1.42953E-006	  4.91176E-007	 -2.48779E-006	  1.15021E-005
  9.43718E+002	  5.96291E-006	  4.93255E-006	  3.63320E-006	  6.67183E-006
  1.04858E+003	 -8.66906E-006	 -6.88136E-006	 -1.21037E-005	 -8.58861E-006
  1.15343E+003	 -1.03923E-005	 -1.01317E-005	 -2.05095E-005	 -5.22591E-006
  1.25829E+003	  2.81644E-006	  5.08767E-006	  3.42111E-006	  3.13538E-006
  1.36315E+003	  1.58307E-005	  2.32236E-005	  2.03339E-005	  1.37822E-005
  1.46801E+003	 -7.68064E-007	 -7.60958E-006	 -4.28471E-006	  4.60088E-006
  1.57286E+003	 -6.38153E-006	 -1.00741E-005	 -8.31501E-006	 -6.11587E-006
  1.67772E+003	 -1.20761E-005	 -1.32264E-005	 -1.00160E-005	 -2.10476E-005
  1.88744E+003	  9.96091E-006	  9.31584E-006	 -1.29738E-007	  1.57315E-005
  2.09715E+003	 -2.09008E-006	  1.08527E-006	 -3.50915E-008	 -5.76941E-006
  2.30687E+003	  3.14300E-006	  1.01642E-006	  1.06058E-005	  1.03748E-006
  2.51658E+003	  1.30753E-006	  3.98910E-006	  9.28156E-006	 -1.11416E-006
  2.72630E+003	  4.13942E-006	  7.34945E-007	  5.47524E-006	  4.24236E-006
  2.93601E+003	  7.99132E-006	  2.36349E-006	  5.24580E-006	  1.17620E-005
  3.14573E+003	 -8.67775E-006	 -1.01568E-005	 -7.52508E-006	 -6.89442E-006
  3.35544E+003	 -2.65888E-006	  2.01074E-007	 -2.11717E-006	  2.97717E-007
  3.77487E+003	 -2.65843E-006	 -3.63352E-006	 -6.81617E-006	  5.95590E-006
  4.19430E+003	  4.64849E-006	  2.27327E-006	  1.26329E-006	  2.81105E-006
  4.61373E+003	  7.51777E-006	  4.08473E-006	  4.59071E-006	  1.34485E-006
  5.03317E+003	  8.31461E-007	  4.68646E-006	  3.44243E-006	  1.66994E-006
  5.45260E+003	 -5.81550E-006	 -8.91240E-006	 -1.56774E-006	 -1.06184E-005
  5.87203E+003	 -4.48419E-007	 -8.44711E-007	  1.20000E-006	 -1.09159E-006
  6.29146E+003	  3.89456E-006	  5.31425E-006	  3.14182E-006	  7.48394E-006
  6.71089E+003	  1.22978E-006	  4.42364E-006	 -1.51326E-006	  3.44101E-006
  7.54975E+003	 -1.06245E-006	 -2.14942E-006	  4.70502E-006	 -5.51730E-006
  8.38861E+003	  1.97464E-006	  5.91158E-006	  6.31208E-006	 -1.52173E-006
  9.22747E+003	 -6.73207E-006	 -9.35250E-006	 -1.03101E-005	 -5.88167E-006
  1.00663E+004	 -2.65504E-008	 -1.94610E-006	 -2.92894E-006	  4.58558E-006
  1.09052E+004	  2.22601E-006	  1.14616E-006	  3.05073E-006	  2.81604E-007
  1.17441E+004	 -3.59338E-006	 -2.88005E-006	 -7.90107E-006	  8.11921E-007

"Count Rate"
       0.19531	     232.89583	     274.72729	     232.89583	     274.72729
       0.39063	     230.88435	     274.95764	     230.88435	     274.95764
       0.58594	     231.83124	     277.55771	     231.83124	     277.55771
       0.78125	     226.91771	     270.26419	     226.91771	     270.26419
       0.97656	     228.21774	     269.43503	     228.21774	     269.43503
       1.17188	     231.08397	     275.57181	     231.08397	     275.57181
       1.36719	     230.48514	     274.10287	     230.48514	     274.10287
       1.56250	     234.63092	     278.63254	     234.63092	     278.63254
       1.75781	     228.86266	     271.65634	     228.86266	     271.65634
       1.95313	     230.80759	     275.79190	     230.80759	     275.79190
       2.14844	     229.77882	     274.85016	     229.77882	     274.85016
       2.34375	     228.50949	     274.64542	     228.50949	     274.64542
       2.53906	     230.82806	     274.94226	     230.82806	     274.94226
       2.73438	     231.37059	     276.21161	     231.37059	     276.21161
       2.92969	     231.54462	     277.12265	     231.54462	     277.12265
       3.12500	     231.16075	     275.00369	     231.16075	     275.00369
       3.32031	     229.88631	     275.46432	     229.88631	     275.46432
       3.51563	     232.07690	     277.55771	     232.07690	     277.55771
       3.71094	     230.70010	     276.72855	     230.70010	     276.72855
       3.90625	     232.21510	     273.59106	     232.21510	     273.59106
       4.10156	     233.32065	     274.34857	     233.32065	     274.34857
       4.29688	     237.07744	     278.45853	     237.07744	     278.45853
       4.49219	     228.50949	     274.01074	     228.50949	     274.01074
       4.68750	     232.85489	     276.27814	     232.85489	     276.27814
       4.88281	     229.89653	     273.53989	     229.89653	     273.53989
       5.07813	     226.68739	     273.52963	     226.68739	     273.52963
       5.27344	     234.22658	     280.04517	     234.22658	     280.04517
       5.46875	     231.58556	     274.52258	     231.58556	     274.52258
       5.66406	     232.73717	     275.29031	     232.73717	     275.29031
       5.85938	     229.97842	     275.14700	     229.97842	     275.14700
       6.05469	     232.24069	     276.44193	     232.24069	     276.44193
       6.25000	     231.98990	     273.41193	     231.98990	     273.41193
       6.44531	     234.56438	     277.71637	     234.56438	     277.71637
       6.64063	     232.09738	     277.47580	     232.09738	     277.47580
       6.83594	     234.68210	     277.72659	     234.68210	     277.72659
       7.03125	     226.99449	     270.58664	     226.99449	     270.58664
       7.22656	     232.89072	     275.99152	     232.89072	     275.99152
       7.42188	     231.84148	     276.99982	     231.84148	     276.99982
       7.61719	     229.88118	     273.11505	     229.88118	     273.11505
       7.81250	     232.84465	     277.77777	     232.84465	     277.77777
       8.00781	     230.01938	     273.87256	     230.01938	     273.87256
       8.20313	     236.17151	     281.22748	     236.17151	     281.22748
       8.39844	     229.40007	     274.11823	     229.40007	     274.11823
       8.59375	     229.56384	     276.63641	     229.56384	     276.63641
       8.78906	     233.31552	     277.56793	     233.31552	     277.56793
       8.98438	     231.24263	     274.46628	     231.24263	     274.46628
       9.17969	     232.22023	     277.14313	     232.22023	     277.14313
       9.37500	     230.40324	     272.55716	     230.40324	     272.55716
       9.57031	     231.81589	     274.04147	     231.81589	     274.04147
       9.76563	     233.00331	     276.69785	     233.00331	     276.69785
       9.96094	     229.96819	     275.27496	     229.96819	     275.27496
      10.15625	     230.37253	     272.88986	     230.37253	     272.88986
      10.35156	     231.40131	     276.51358	     231.40131	     276.51358
      10.54688	     232.61945	     276.34979	     232.61945	     276.34979
      10.74219	     230.81270	     276.35492	     230.81270	     276.35492
      10.93750	     230.31624	     276.98447	     230.31624	     276.98447
      11.13281	     233.38718	     277.08170	     233.38718	     277.08170
      11.32813	     234.39548	     281.39639	     234.39548	     281.39639
      11.52344	     229.62527	     273.78043	     229.62527	     273.78043
      11.71875	     235.57268	     283.57166	     235.57268	     283.57166
      11.91406	     229.92213	     274.72220	     229.92213	     274.72220
      12.10938	     229.15439	     275.83286	     229.15439	     275.83286
      12.30469	     230.45442	     278.51993	     230.45442	     278.51993
      12.50000	     233.49979	     279.44122	     233.49979	     279.44122
      12.69531	     231.56508	     274.60959	     231.56508	     274.60959
      12.89063	     233.30530	     278.61719	     233.30530	     278.61719
      13.08594	     232.74741	     277.47580	     232.74741	     277.47580
      13.28125	     231.20680	     276.56989	     231.20680	     276.56989
      13.47656	     231.52414	     274.59424	     231.52414	     274.59424
      13.67188	     229.31305	     272.03000	     229.31305	     272.03000
      13.86719	     237.58415	     281.59601	     237.58415	     281.59601
      14.06250	     230.03473	     273.09457	     230.03473	     273.09457
      14.25781	     230.82806	     276.50333	     230.82806	     276.50333
      14.45313	     230.73080	     273.77020	     230.73080	     273.77020
      14.64844	     229.01619	     272.37292	     229.01619	     272.37292
      14.84375	     228.02325	     270.82721	     228.02325	     270.82721
      15.03906	     232.68086	     279.49240	     232.68086	     279.49240
      15.23438	     231.51903	     276.65176	     231.51903	     276.65176
      15.42969	     232.41983	     277.21991	     232.41983	     277.21991
      15.62500	     228.79100	     269.25076	     228.79100	     269.25076
      15.82031	     231.85172	     277.95181	     231.85172	     277.95181
      16.01563	     233.06985	     276.96912	     233.06985	     276.96912
      16.21094	     226.98425	     272.83868	     226.98425	     272.83868
      16.40625	     233.34624	     279.42587	     233.34624	     279.42587
      16.60156	     232.93166	     277.61911	     232.93166	     277.61911
      16.79688	     228.62721	     271.17014	     228.62721	     271.17014
      16.99219	     235.03014	     279.86603	     235.03014	     279.86603
      17.18750	     229.54338	     273.13040	     229.54338	     273.13040
      17.38281	     229.46660	     274.44067	     229.46660	     274.44067
      17.57813	     231.92337	     276.23209	     231.92337	     276.23209
      17.77344	     231.41666	     277.01517	     231.41666	     277.01517
      17.96875	     232.90096	     277.92111	     232.90096	     277.92111
      18.16406	     228.98549	     272.69537	     228.98549	     272.69537
      18.35938	     228.16656	     271.51303	     228.16656	     271.51303
      18.55469	     230.62845	     277.30692	     230.62845	     277.30692
      18.75000	     230.51073	     274.23083	     230.51073	     274.23083
      18.94531	     229.01619	     275.66907	     229.01619	     275.66907
      19.14063	     229.67645	     274.88086	     229.67645	     274.88086
      19.33594	     230.59262	     276.46750	     230.59262	     276.46750
      19.53125	     233.22852	     277.76242	     233.22852	     277.76242
      19.72656	     231.31429	     272.12723	     231.31429	     272.12723
      19.92188	     231.18121	     272.59811	     231.18121	     272.59811
      20.11719	     231.46783	     280.78220	     231.46783	     280.78220
      20.31250	     232.41472	     275.04974	     232.41472	     275.04974
      20.50781	     230.50562	     276.33444	     230.50562	     276.33444
      20.70313	     230.19852	     276.04782	     230.19852	     276.04782
      20.89844	     233.89900	     277.75732	     233.89900	     277.75732
      21.09375	     231.93359	     276.73367	     231.93359	     276.73367
      21.28906	     228.80122	     272.25006	     228.80122	     272.25006
      21.48438	     228.99573	     273.82651	     228.99573	     273.82651
      21.67969	     232.29700	     278.61206	     232.29700	     278.61206
      21.87500	     230.62845	     273.86743	     230.62845	     273.86743
      22.07031	     230.25481	     274.34344	     230.25481	     274.34344
      22.26563	     235.68016	     279.72784	     235.68016	     279.72784
      22.46094	     230.57214	     270.80673	     230.57214	     270.80673
      22.65625	     231.17610	     277.54236	     231.17610	     277.54236
      22.85156	     231.04303	     277.04587	     231.04303	     277.04587
      23.04688	     225.89406	     269.30707	     225.89406	     269.30707
      23.24219	     233.71986	     277.18408	     233.71986	     277.18408
      23.43750	     235.19392	     279.56918	     235.19392	     279.56918
      23.63281	     235.92072	     281.38614	     235.92072	     281.38614
      23.82813	     230.58749	     278.80655	     230.58749	     278.80655
      24.02344	     231.46783	     278.06442	     231.46783	     278.06442
      24.21875	     232.69621	     279.78925	     232.69621	     279.78925
      24.41406	     232.50172	     277.26596	     232.50172	     277.26596
      24.60938	     231.69304	     275.01392	     231.69304	     275.01392
      24.80469	     228.53508	     274.12335	     228.53508	     274.12335
      25.00000	     231.73399	     277.82385	     231.73399	     277.82385
      25.19531	     229.34377	     277.78802	     229.34377	     277.78802
      25.39063	     229.45636	     275.63837	     229.45636	     275.63837
      25.58594	     235.04550	     277.18918	     235.04550	     277.18918
      25.78125	     238.28535	     284.38544	     238.28535	     284.38544
      25.97656	     227.65474	     270.76065	     227.65474	     270.76065
      26.17188	     229.69693	     276.36514	     229.69693	     276.36514
      26.36719	     231.84659	     273.77020	     231.84659	     273.77020
      26.56250	     231.13004	     276.11435	     231.13004	     276.11435
      26.75781	     231.01744	     275.63837	     231.01744	     275.63837
      26.95313	     233.18245	     277.06635	     233.18245	     277.06635
      27.14844	     228.87801	     274.57376	     228.87801	     274.57376
      27.34375	     227.75198	     273.71902	     227.75198	     273.71902
      27.53906	     228.48901	     272.19888	     228.48901	     272.19888
      27.73438	     234.98409	     281.99524	     234.98409	     281.99524
      27.92969	     233.36671	     276.14505	     233.36671	     276.14505
      28.12500	     237.20540	     279.11365	     237.20540	     279.11365
      28.32031	     232.34818	     278.83725	     232.34818	     278.83725
      28.51563	     233.04938	     276.48288	     233.04938	     276.48288
      28.71094	     234.25729	     278.84238	     234.25729	     278.84238
      28.90625	     232.88559	     276.31909	     232.88559	     276.31909
      29.10156	     227.91066	     273.41702	     227.91066	     273.41702
      29.29688	     231.38083	     273.53476	     231.38083	     273.53476
      29.49219	     233.69427	     278.54553	     233.69427	     278.54553
      29.68750	     230.50049	     274.06192	     230.50049	     274.06192
      29.88281	     232.28165	     276.84116	     232.28165	     276.84116
      30.07813	     230.82806	     276.21161	     230.82806	     276.21161
      30.27344	     230.40836	     273.52963	     230.40836	     273.52963
      30.46875	     236.58609	     280.05542	     236.58609	     280.05542
      30.66406	     229.76346	     275.28519	     229.76346	     275.28519
      30.85938	     234.10374	     277.14825	     234.10374	     277.14825
      31.05469	     234.30847	     277.65494	     234.30847	     277.65494
      31.25000	     231.14539	     272.68512	     231.14539	     272.68512
      31.44531	     233.83247	     274.94739	     233.83247	     274.94739
      31.64063	     231.92848	     274.07217	     231.92848	     274.07217
      31.83594	     232.12297	     277.61911	     232.12297	     277.61911
      32.03125	     228.10004	     274.67102	     228.10004	     274.67102
      32.22656	     224.94719	     266.62000	     224.94719	     266.62000
      32.42188	     229.58432	     275.86868	     229.58432	     275.86868
      32.61719	     227.47560	     272.00952	     227.47560	     272.00952
      32.81250	     230.54655	     276.81042	     230.54655	     276.81042
      33.00781	     231.58044	     274.88086	     231.58044	     274.88086
      33.20313	     232.45566	     275.84821	     232.45566	     275.84821
      33.39844	     231.96431	     276.02734	     231.96431	     276.02734
      33.59375	     234.16516	     275.13678	     234.16516	     275.13678
      33.78906	     232.01038	     276.72855	     232.01038	     276.72855
      33.98438	     233.41789	     279.43610	     233.41789	     279.43610
      34.17969	     230.44418	     274.40997	     230.44418	     274.40997
      34.37500	     231.67258	     279.72784	     231.67258	     279.72784
      34.57031	     233.21828	     276.15018	     233.21828	     276.15018
      34.76563	     233.13638	     280.80267	     233.13638	     280.80267
      34.96094	     231.07886	     275.54623	     231.07886	     275.54623
      35.15625	     231.17610	     275.07022	     231.17610	     275.07022
      35.35156	     229.93236	     272.14258	     229.93236	     272.14258
      35.54688	     234.00648	     278.10025	     234.00648	     278.10025
      35.74219	     231.46272	     277.44510	     231.46272	     277.44510
      35.93750	     231.20169	     272.63907	     231.20169	     272.63907
      36.13281	     235.27582	     277.37344	     235.27582	     277.37344
      36.32813	     231.83124	     276.79507	     231.83124	     276.79507
      36.52344	     232.67575	     280.22943	     232.67575	     280.22943
      36.71875	     233.83247	     277.77777	     233.83247	     277.77777
      36.91406	     237.47154	     282.35861	     237.47154	     282.35861
      37.10938	     229.87094	     272.05048	     229.87094	     272.05048
      37.30469	     231.75958	     275.37732	     231.75958	     275.37732
      37.50000	     232.03085	     277.80338	     232.03085	     277.80338
      37.69531	     232.25093	     276.49823	     232.25093	     276.49823
      37.89063	     229.74298	     276.27301	     229.74298	     276.27301
      38.08594	     234.04744	     277.67542	     234.04744	     277.67542
      38.28125	     233.25410	     277.96204	     233.25410	     277.96204
      38.47656	     232.12810	     271.85086	     232.12810	     271.85086
      38.67188	     231.51903	     275.37732	     231.51903	     275.37732
      38.86719	     235.73647	     276.99469	     235.73647	     276.99469
      39.06250	     231.07373	     274.63007	     231.07373	     274.63007
      39.25781	     228.03349	     274.15405	     228.03349	     274.15405
      39.45313	     231.55997	     273.67807	     231.55997	     273.67807
      39.64844	     231.02766	     274.91156	     231.02766	     274.91156
      39.84375	     232.80371	     277.64984	     232.80371	     277.64984
      40.03906	     227.28111	     274.29736	     227.28111	     274.29736
      40.23438	     230.78200	     278.06952	     230.78200	     278.06952
      40.42969	     228.91895	     271.19058	     228.91895	     271.19058
      40.62500	     234.07816	     278.36127	     234.07816	     278.36127
      40.82031	     232.16904	     274.31784	     232.16904	     274.31784
      41.01563	     231.83124	     279.22626	     231.83124	     279.22626
      41.21094	     232.41472	     276.89233	     232.41472	     276.89233
      41.40625	     234.72816	     278.56601	     234.72816	     278.56601
      41.60156	     234.24706	     278.71954	     234.24706	     278.71954
      41.79688	     227.76735	     271.99927	     227.76735	     271.99927
      41.99219	     232.50172	     277.71637	     232.50172	     277.71637
      42.18750	     231.97966	     273.94934	     231.97966	     273.94934
      42.38281	     234.30334	     276.44193	     234.30334	     276.44193
      42.57813	     228.88824	     273.95956	     228.88824	     273.95956
      42.77344	     231.08910	     274.65054	     231.08910	     274.65054
      42.96875	     233.05962	     274.49698	     233.05962	     274.49698
      43.16406	     234.74864	     276.17578	     234.74864	     276.17578
      43.35938	     228.59650	     272.10165	     228.59650	     272.10165
      43.55469	     234.03209	     278.60184	     234.03209	     278.60184
      43.75000	     233.74547	     278.81168	     233.74547	     278.81168
      43.94531	     231.31429	     276.73367	     231.31429	     276.73367
      44.14063	     228.41736	     276.05295	     228.41736	     276.05295
      44.33594	     235.33212	     278.51993	     235.33212	     278.51993
      44.53125	     228.51973	     270.86304	     228.51973	     270.86304
      44.72656	     231.56508	     272.81821	     231.56508	     272.81821
      44.92188	     231.00208	     276.08365	     231.00208	     276.08365
      45.11719	     234.03720	     278.32031	     234.03720	     278.32031
      45.31250	     228.98036	     275.75095	     228.98036	     275.75095
      45.50781	     231.98990	     277.48093	     231.98990	     277.48093
      45.70313	     232.86513	     278.86285	     232.86513	     278.86285
      45.89844	     230.87411	     273.44263	     230.87411	     273.44263
      46.09375	     230.60797	     275.12653	     230.60797	     275.12653
      46.28906	     231.83635	     276.98447	     231.83635	     276.98447
      46.48438	     232.22023	     275.60764	     232.22023	     275.60764
      46.67969	     231.57021	     272.46503	     231.57021	     272.46503
      46.87500	     229.56897	     275.64346	     229.56897	     275.64346
      47.07031	     234.35965	     276.15018	     234.35965	     276.15018
      47.26563	     233.51003	     275.85843	     233.51003	     275.85843
      47.46094	     228.19728	     271.90717	     228.19728	     271.90717
      47.65625	     232.37889	     277.68567	     232.37889	     277.68567
      47.85156	     233.11592	     277.04077	     233.11592	     277.04077
      48.04688	     232.66039	     275.63324	     232.66039	     275.63324
      48.24219	     232.38913	     277.96716	     232.38913	     277.96716
      48.43750	     230.62332	     276.91281	     230.62332	     276.91281
      48.63281	     234.05255	     278.79633	     234.05255	     278.79633
      48.82813	     231.44737	     276.17065	     231.44737	     276.17065
      49.02344	     229.32841	     273.40680	     229.32841	     273.40680
      49.21875	     229.60991	     276.94351	     229.60991	     276.94351
      49.41406	     228.44295	     273.09970	     228.44295	     273.09970
      49.60938	     230.76152	     274.83990	     230.76152	     274.83990

Monitor Diode	1632476.49
"StandardDeviation"
  3.12500E-006	  1.26390E-002
  6.25000E-006	  1.26390E-002
  9.37500E-006	  1.26390E-002
  1.25000E-005	  1.26389E-002
  1.56250E-005	  1.26389E-002
  1.87500E-005	  1.26389E-002
  2.18750E-005	  1.26390E-002
  2.50000E-005	  1.26389E-002
  2.81250E-005	  1.26389E-002
  3.12500E-005	  1.26389E-002
  3.43750E-005	  1.26138E-002
  3.75000E-005	  1.25977E-002
  4.06250E-005	  1.25900E-002
  4.37500E-005	  1.26064E-002
  4.68750E-005	  1.26390E-002
  5.00000E-005	  8.91787E-003
  5.62500E-005	  8.90487E-003
  6.25000E-005	  8.92435E-003
  6.87500E-005	  8.87546E-003
  7.50000E-005	  8.86145E-003
  8.12500E-005	  8.91478E-003
  8.75000E-005	  8.89536E-003
  9.37500E-005	  8.93219E-003
  1.00000E-004	  6.31478E-003
  1.12500E-004	  6.30714E-003
  1.25000E-004	  6.27751E-003
  1.37500E-004	  6.29218E-003
  1.50000E-004	  6.29583E-003
  1.62500E-004	  6.28392E-003
  1.75000E-004	  6.29801E-003
  1.87500E-004	  6.29323E-003
  2.00000E-004	  4.46036E-003
  2.25000E-004	  4.46313E-003
  2.50000E-004	  4.46303E-003
  2.75000E-004	  4.47140E-003
  3.00000E-004	  4.46376E-003
  3.25000E-004	  4.45528E-003
  3.50000E-004	  4.46620E-003
  3.75000E-004	  4.46168E-003
  4.00000E-004	  3.17604E-003
  4.50000E-004	  3.16955E-003
  5.00000E-004	  3.17787E-003
  5.50000E-004	  3.17575E-003
  6.00000E-004	  3.16916E-003
  6.50000E-004	  3.17201E-003
  7.00000E-004	  3.17053E-003
  7.50000E-004	  3.16685E-003
  8.00000E-004	  2.26872E-003
  9.00000E-004	  2.26679E-003
  1.00000E-003	  2.26641E-003
  1.10000E-003	  2.26284E-003
  1.20000E-003	  2.26326E-003
  1.30000E-003	  2.26210E-003
  1.40000E-003	  2.25775E-003
  1.50000E-003	  2.25792E-003
  1.60000E-003	  1.63602E-003
  1.80000E-003	  1.63314E-003
  2.00000E-003	  1.63104E-003
  2.20000E-003	  1.62979E-003
  2.40000E-003	  1.62729E-003
  2.60000E-003	  1.62397E-003
  2.80000E-003	  1.62252E-003
  3.00000E-003	  1.62092E-003
  3.20000E-003	  1.19579E-003
  3.60000E-003	  1.19298E-003
  4.00000E-003	  1.19021E-003
  4.40000E-003	  1.18636E-003
  4.80000E-003	  1.18362E-003
  5.20000E-003	  1.17996E-003
  5.60000E-003	  1.17699E-003
  6.00000E-003	  1.17388E-003
  6.40000E-003	  8.92514E-004
  7.20000E-003	  8.87428E-004
  8.00000E-003	  8.82568E-004
  8.80000E-003	  8.77683E-004
  9.60000E-003	  8.73078E-004
  1.04000E-002	  8.68662E-004
  1.12000E-002	  8.64373E-004
  1.20000E-002	  8.60067E-004
  1.28000E-002	  6.78436E-004
  1.44000E-002	  6.70836E-004
  1.60000E-002	  6.64116E-004
  1.76000E-002	  6.57731E-004
  1.92000E-002	  6.51629E-004
  2.08000E-002	  6.46264E-004
  2.24000E-002	  6.41273E-004
  2.40000E-002	  6.36200E-004
  2.56000E-002	  5.20377E-004
  2.88000E-002	  5.11925E-004
  3.20000E-002	  5.04915E-004
  3.52000E-002	  4.98776E-004
  3.84000E-002	  4.93316E-004
  4.16000E-002	  4.88710E-004
  4.48000E-002	  4.84809E-004
  4.80000E-002	  4.81407E-004
  5.12000E-002	  4.08348E-004
  5.76000E-002	  4.03371E-004
  6.40000E-002	  4.00002E-004
  7.04000E-002	  3.97279E-004
  7.68000E-002	  3.95250E-004
  8.32000E-002	  3.93815E-004
  8.96000E-002	  3.92866E-004
  9.60000E-002	  3.92163E-004
  1.02400E-001	  3.43551E-004
  1.15200E-001	  3.42383E-004
  1.28000E-001	  3.40926E-004
  1.40800E-001	  3.40926E-004
  1.53600E-001	  3.40926E-004
  1.66400E-001	  3.40926E-004
  1.79200E-001	  3.40926E-004
  1.92000E-001	  3.40926E-004
  2.04800E-001	  2.98915E-004
  2.30400E-001	  2.98915E-004
  2.56000E-001	  2.98915E-004
  2.81600E-001	  2.98915E-004
  3.07200E-001	  2.98915E-004
  3.32800E-001	  2.98915E-004
  3.58400E-001	  2.98915E-004
  3.84000E-001	  2.98915E-004
  4.09600E-001	  2.54319E-004
  4.60800E-001	  2.54319E-004
  5.12000E-001	  2.54319E-004
  5.63200E-001	  2.54319E-004
  6.14400E-001	  2.54319E-004
  6.65600E-001	  2.54319E-004
  7.16800E-001	  2.54319E-004
  7.68000E-001	  2.54319E-004
  8.19200E-001	  2.09010E-004
  9.21600E-001	  2.09010E-004
  1.02400E+000	  2.09010E-004
  1.12640E+000	  2.09010E-004
  1.22880E+000	  2.09010E-004
  1.33120E+000	  2.09010E-004
  1.43360E+000	  2.09010E-004
  1.53600E+000	  2.09010E-004
  1.63840E+000	  1.60449E-004
  1.84320E+000	  1.60449E-004
  2.04800E+000	  1.60449E-004
  2.25280E+000	  1.60449E-004
  2.45760E+000	  1.60449E-004
  2.66240E+000	  1.60449E-004
  2.86720E+000	  1.60449E-004
  3.07200E+000	  1.60449E-004
  3.27680E+000	  1.18410E-004
  3.68640E+000	  1.18410E-004
  4.09600E+000	  1.18410E-004
  4.50560E+000	  1.18410E-004
  4.91520E+000	  1.18410E-004
  5.32480E+000	  1.18410E-004
  5.73440E+000	  1.18410E-004
  6.14400E+000	  1.18410E-004
  6.55360E+000	  8.54859E-005
  7.37280E+000	  8.54859E-005
  8.19200E+000	  8.54859E-005
  9.01120E+000	  8.54859E-005
  9.83040E+000	  8.54859E-005
  1.06496E+001	  8.54859E-005
  1.14688E+001	  8.54859E-005
  1.22880E+001	  8.54859E-005
  1.31072E+001	  6.10692E-005
  1.47456E+001	  6.10692E-005
  1.63840E+001	  6.10692E-005
  1.80224E+001	  6.10692E-005
  1.96608E+001	  6.10692E-005
  2.12992E+001	  6.10692E-005
  2.29376E+001	  6.10692E-005
  2.45760E+001	  6.10692E-005
  2.62144E+001	  4.34022E-005
  2.94912E+001	  4.34022E-005
  3.27680E+001	  4.34022E-005
  3.60448E+001	  4.34022E-005
  3.93216E+001	  4.34022E-005
  4.25984E+001	  4.34022E-005
  4.58752E+001	  4.34022E-005
  4.91520E+001	  4.34022E-005
  5.24288E+001	  3.07676E-005
  5.89824E+001	  3.07676E-005
  6.55360E+001	  3.07676E-005
  7.20896E+001	  3.07676E-005
  7.86432E+001	  3.07676E-005
  8.51968E+001	  3.07676E-005
  9.17504E+001	  3.07676E-005
  9.83040E+001	  3.07676E-005
  1.04858E+002	  2.17834E-005
  1.17965E+002	  2.17834E-005
  1.31072E+002	  2.17834E-005
  1.44179E+002	  2.17834E-005
  1.57286E+002	  2.17834E-005
  1.70394E+002	  2.17834E-005
  1.83501E+002	  2.17834E-005
  1.96608E+002	  2.17834E-005
  2.09715E+002	  1.54128E-005
  2.35930E+002	  1.54128E-005
  2.62144E+002	  1.54128E-005
  2.88358E+002	  1.54128E-005
  3.14573E+002	  1.54128E-005
  3.40787E+002	  1.54128E-005
  3.67002E+002	  1.54128E-005
  3.93216E+002	  1.54128E-005
  4.19430E+002	  1.09017E-005
  4.71859E+002	  1.09017E-005
  5.24288E+002	  1.09017E-005
  5.76717E+002	  1.09017E-005
  6.29146E+002	  1.09017E-005
  6.81574E+002	  1.09017E-005
  7.34003E+002	  1.09017E-005
  7.86432E+002	  1.09017E-005
  8.38861E+002	  7.70967E-006
  9.43718E+002	  7.70967E-006
  1.04858E+003	  7.70967E-006
  1.15343E+003	  7.70967E-006
  1.25829E+003	  7.70967E-006
  1.36315E+003	  7.70967E-006
  1.46801E+003	  7.70967E-006
  1.57286E+003	  7.70967E-006
  1.67772E+003	  5.45166E-006
  1.88744E+003	  5.45166E-006
  2.09715E+003	  5.45166E-006
  2.30687E+003	  5.45166E-006
  2.51658E+003	  5.45166E-006
  2.72630E+003	  5.45166E-006
  2.93601E+003	  5.45166E-006
  3.14573E+003	  5.45166E-006
  3.35544E+003	  3.85458E-006
  3.77487E+003	  3.85458E-006
  4.19430E+003	  3.85458E-006
  4.61373E+003	  3.85458E-006
  5.03317E+003	  3.85458E-006
  5.45260E+003	  3.85458E-006
  5.87203E+003	  3.85458E-006
  6.29146E+003	  3.85458E-006
  6.71089E+003	  2.72499E-006
  7.54975E+003	  2.72499E-006
  8.38861E+003	  2.72499E-006
  9.22747E+003	  2.72499E-006
  1.00663E+004	  2.72499E-006
  1.09052E+004	  2.72499E-006
  1.17441E+004	  2.72499E-006
