ALV-7004 or ALV-7004/FAST Data
Date :	"3/28/2010"
Time :	"12:23:28 PM"
Samplename : 	"BSA 15 g/l in 8.3 mM YCl3"
SampMemo(0) : 	""
SampMemo(1) : 	""
SampMemo(2) : 	""
SampMemo(3) : 	""
SampMemo(4) : 	""
SampMemo(5) : 	""
SampMemo(6) : 	""
SampMemo(7) : 	""
SampMemo(8) : 	""
SampMemo(9) : 	""
Temperature [K] :	     295.62603
Viscosity [cp]  :	       0.94388
Refractive Index:	       1.33200
Wavelength [nm] :	     632.80000
Angle [°]       :	      70.00000
Duration [s]    :	        60
Runs            :	         1
Mode            :	"C-CH0/1+1/0"
MeanCR0 [kHz]   :	     313.09322
MeanCR1 [kHz]   :	     393.09306
MeanCR2 [kHz]   :	       0.00000
MeanCR3 [kHz]   :	       0.00000

"Correlation"
  3.12500E-006	  6.46272E-001	  6.45443E-001	 -2.00000E+000	 -2.00000E+000
  6.25000E-006	  6.38929E-001	  6.32215E-001	 -2.00000E+000	 -2.00000E+000
  9.37500E-006	  6.53048E-001	  6.50452E-001	 -2.00000E+000	 -2.00000E+000
  1.25000E-005	  6.32230E-001	  6.24576E-001	 -2.00000E+000	 -2.00000E+000
  1.56250E-005	  6.72649E-001	  6.66125E-001	 -2.00000E+000	 -2.00000E+000
  1.87500E-005	  6.72654E-001	  6.82613E-001	 -2.00000E+000	 -2.00000E+000
  2.18750E-005	  6.56131E-001	  6.73725E-001	 -2.00000E+000	 -2.00000E+000
  2.50000E-005	  6.74983E-001	  6.85315E-001	 -2.00000E+000	 -2.00000E+000
  2.81250E-005	  6.67913E-001	  6.81120E-001	 -2.00000E+000	 -2.00000E+000
  3.12500E-005	  6.75716E-001	  6.61748E-001	 -2.00000E+000	 -2.00000E+000
  3.43750E-005	  6.36019E-001	  6.28752E-001	 -2.00000E+000	 -1.99993E+000
  3.75000E-005	  6.65578E-001	  6.62415E-001	 -2.00000E+000	 -2.00000E+000
  4.06250E-005	  6.65965E-001	  6.65261E-001	 -2.00000E+000	  8.51762E-001
  4.37500E-005	  6.69081E-001	  6.77914E-001	 -2.00000E+000	  1.03557E+000
  4.68750E-005	  6.75056E-001	  6.60555E-001	 -2.00000E+000	 -6.13148E-001
  5.00000E-005	  6.73693E-001	  6.74347E-001	 -2.00000E+000	  1.78023E+000
  5.62500E-005	  6.65137E-001	  6.66741E-001	 -2.00000E+000	  8.56257E-001
  6.25000E-005	  6.73321E-001	  6.70544E-001	 -2.00000E+000	  8.93607E-001
  6.87500E-005	  6.55780E-001	  6.52907E-001	 -1.95384E+000	  1.01093E+000
  7.50000E-005	  6.55431E-001	  6.50117E-001	  1.59304E+000	  6.93850E-001
  8.12500E-005	  6.80102E-001	  6.64746E-001	  9.66346E-001	  7.39831E-001
  8.75000E-005	  6.65293E-001	  6.66784E-001	  9.13803E-001	  7.16470E-001
  9.37500E-005	  6.61790E-001	  6.57694E-001	  8.51638E-001	  7.32879E-001
  1.00000E-004	  6.54032E-001	  6.55027E-001	  7.67249E-001	  6.89490E-001
  1.12500E-004	  6.64368E-001	  6.63222E-001	  7.84339E-001	  7.08594E-001
  1.25000E-004	  6.63228E-001	  6.62958E-001	  7.26870E-001	  7.10610E-001
  1.37500E-004	  6.62882E-001	  6.62219E-001	  6.61157E-001	  7.00633E-001
  1.50000E-004	  6.66373E-001	  6.67994E-001	  6.67645E-001	  7.02808E-001
  1.62500E-004	  6.52485E-001	  6.54223E-001	  6.61113E-001	  6.98727E-001
  1.75000E-004	  6.61088E-001	  6.56967E-001	  6.44132E-001	  6.88048E-001
  1.87500E-004	  6.63139E-001	  6.59641E-001	  6.54476E-001	  6.80054E-001
  2.00000E-004	  6.60411E-001	  6.55400E-001	  6.54439E-001	  6.86095E-001
  2.25000E-004	  6.60482E-001	  6.58419E-001	  6.55762E-001	  6.88015E-001
  2.50000E-004	  6.59748E-001	  6.57555E-001	  6.66055E-001	  6.86789E-001
  2.75000E-004	  6.58722E-001	  6.58757E-001	  6.62114E-001	  6.81727E-001
  3.00000E-004	  6.60763E-001	  6.57702E-001	  6.55057E-001	  6.84034E-001
  3.25000E-004	  6.61469E-001	  6.57575E-001	  6.59312E-001	  6.76305E-001
  3.50000E-004	  6.59680E-001	  6.59105E-001	  6.63910E-001	  6.79333E-001
  3.75000E-004	  6.60368E-001	  6.59923E-001	  6.60446E-001	  6.81590E-001
  4.00000E-004	  6.59049E-001	  6.61891E-001	  6.57537E-001	  6.80217E-001
  4.50000E-004	  6.58892E-001	  6.61586E-001	  6.63416E-001	  6.78615E-001
  5.00000E-004	  6.60147E-001	  6.60382E-001	  6.60737E-001	  6.81147E-001
  5.50000E-004	  6.58557E-001	  6.62500E-001	  6.61039E-001	  6.76275E-001
  6.00000E-004	  6.57489E-001	  6.54157E-001	  6.66272E-001	  6.74696E-001
  6.50000E-004	  6.52969E-001	  6.50731E-001	  6.54613E-001	  6.74805E-001
  7.00000E-004	  6.56275E-001	  6.56518E-001	  6.61175E-001	  6.75881E-001
  7.50000E-004	  6.53083E-001	  6.52020E-001	  6.61129E-001	  6.70664E-001
  8.00000E-004	  6.52463E-001	  6.50559E-001	  6.63060E-001	  6.73128E-001
  9.00000E-004	  6.53269E-001	  6.54896E-001	  6.60331E-001	  6.70234E-001
  1.00000E-003	  6.48605E-001	  6.46100E-001	  6.55967E-001	  6.65602E-001
  1.10000E-003	  6.49752E-001	  6.49989E-001	  6.53511E-001	  6.69405E-001
  1.20000E-003	  6.46540E-001	  6.45364E-001	  6.57531E-001	  6.65494E-001
  1.30000E-003	  6.45706E-001	  6.46899E-001	  6.50932E-001	  6.61925E-001
  1.40000E-003	  6.42426E-001	  6.41457E-001	  6.49648E-001	  6.63167E-001
  1.50000E-003	  6.42908E-001	  6.41156E-001	  6.46710E-001	  6.61660E-001
  1.60000E-003	  6.44196E-001	  6.44628E-001	  6.46344E-001	  6.56937E-001
  1.80000E-003	  6.40053E-001	  6.39593E-001	  6.45396E-001	  6.55879E-001
  2.00000E-003	  6.37668E-001	  6.38386E-001	  6.41560E-001	  6.53277E-001
  2.20000E-003	  6.36008E-001	  6.35252E-001	  6.38223E-001	  6.49575E-001
  2.40000E-003	  6.32541E-001	  6.32337E-001	  6.37550E-001	  6.48414E-001
  2.60000E-003	  6.29900E-001	  6.29358E-001	  6.33257E-001	  6.44787E-001
  2.80000E-003	  6.28461E-001	  6.29701E-001	  6.31525E-001	  6.41671E-001
  3.00000E-003	  6.24692E-001	  6.26536E-001	  6.32883E-001	  6.38428E-001
  3.20000E-003	  6.23553E-001	  6.23285E-001	  6.30122E-001	  6.38011E-001
  3.60000E-003	  6.16798E-001	  6.17272E-001	  6.24628E-001	  6.31911E-001
  4.00000E-003	  6.12238E-001	  6.11271E-001	  6.19143E-001	  6.27319E-001
  4.40000E-003	  6.07107E-001	  6.07292E-001	  6.16248E-001	  6.23054E-001
  4.80000E-003	  6.01975E-001	  6.00893E-001	  6.09284E-001	  6.16180E-001
  5.20000E-003	  5.97853E-001	  5.96841E-001	  6.04874E-001	  6.12072E-001
  5.60000E-003	  5.92919E-001	  5.94009E-001	  5.98033E-001	  6.05363E-001
  6.00000E-003	  5.88289E-001	  5.87998E-001	  5.94907E-001	  6.02015E-001
  6.40000E-003	  5.84232E-001	  5.84117E-001	  5.90381E-001	  5.97220E-001
  7.20000E-003	  5.74036E-001	  5.74135E-001	  5.80381E-001	  5.88315E-001
  8.00000E-003	  5.65791E-001	  5.65664E-001	  5.71460E-001	  5.79152E-001
  8.80000E-003	  5.56242E-001	  5.55993E-001	  5.63261E-001	  5.69098E-001
  9.60000E-003	  5.46515E-001	  5.47093E-001	  5.52491E-001	  5.59426E-001
  1.04000E-002	  5.38244E-001	  5.38744E-001	  5.43764E-001	  5.50768E-001
  1.12000E-002	  5.29663E-001	  5.30307E-001	  5.34934E-001	  5.42189E-001
  1.20000E-002	  5.21704E-001	  5.21767E-001	  5.25631E-001	  5.32831E-001
  1.28000E-002	  5.12871E-001	  5.12833E-001	  5.17516E-001	  5.24926E-001
  1.44000E-002	  4.96984E-001	  4.97617E-001	  5.02636E-001	  5.08497E-001
  1.60000E-002	  4.81145E-001	  4.81022E-001	  4.87237E-001	  4.93140E-001
  1.76000E-002	  4.65581E-001	  4.65520E-001	  4.72078E-001	  4.76674E-001
  1.92000E-002	  4.51548E-001	  4.51596E-001	  4.56461E-001	  4.62007E-001
  2.08000E-002	  4.36560E-001	  4.36235E-001	  4.42025E-001	  4.48123E-001
  2.24000E-002	  4.22910E-001	  4.22569E-001	  4.28744E-001	  4.32713E-001
  2.40000E-002	  4.09955E-001	  4.10067E-001	  4.14932E-001	  4.18843E-001
  2.56000E-002	  3.97264E-001	  3.97740E-001	  4.01864E-001	  4.06613E-001
  2.88000E-002	  3.72991E-001	  3.73434E-001	  3.76411E-001	  3.81304E-001
  3.20000E-002	  3.49518E-001	  3.49889E-001	  3.52938E-001	  3.58567E-001
  3.52000E-002	  3.28026E-001	  3.28361E-001	  3.31029E-001	  3.36142E-001
  3.84000E-002	  3.07525E-001	  3.07301E-001	  3.11638E-001	  3.15409E-001
  4.16000E-002	  2.89058E-001	  2.88902E-001	  2.92118E-001	  2.95783E-001
  4.48000E-002	  2.71639E-001	  2.71715E-001	  2.73910E-001	  2.77895E-001
  4.80000E-002	  2.54712E-001	  2.54706E-001	  2.57025E-001	  2.60817E-001
  5.12000E-002	  2.39391E-001	  2.39555E-001	  2.41424E-001	  2.44981E-001
  5.76000E-002	  2.10986E-001	  2.11277E-001	  2.13043E-001	  2.16320E-001
  6.40000E-002	  1.86089E-001	  1.86035E-001	  1.87477E-001	  1.90512E-001
  7.04000E-002	  1.64272E-001	  1.64234E-001	  1.65725E-001	  1.68405E-001
  7.68000E-002	  1.44796E-001	  1.44829E-001	  1.46350E-001	  1.48690E-001
  8.32000E-002	  1.27949E-001	  1.27788E-001	  1.28760E-001	  1.31196E-001
  8.96000E-002	  1.12986E-001	  1.12850E-001	  1.13829E-001	  1.16094E-001
  9.60000E-002	  9.97716E-002	  9.99898E-002	  1.00327E-001	  1.02558E-001
  1.02400E-001	  8.87508E-002	  8.89415E-002	  8.94249E-002	  9.12028E-002
  1.15200E-001	  6.95110E-002	  6.97303E-002	  6.98045E-002	  7.11422E-002
  1.28000E-001	  5.43669E-002	  5.44137E-002	  5.49731E-002	  5.59182E-002
  1.40800E-001	  4.26327E-002	  4.30815E-002	  4.32925E-002	  4.35885E-002
  1.53600E-001	  3.36296E-002	  3.37317E-002	  3.36587E-002	  3.42314E-002
  1.66400E-001	  2.64787E-002	  2.68018E-002	  2.68130E-002	  2.74023E-002
  1.79200E-001	  2.11414E-002	  2.13103E-002	  2.13282E-002	  2.16617E-002
  1.92000E-001	  1.64989E-002	  1.68952E-002	  1.66146E-002	  1.67360E-002
  2.04800E-001	  1.31453E-002	  1.35194E-002	  1.29297E-002	  1.32671E-002
  2.30400E-001	  7.86294E-003	  7.97566E-003	  8.06338E-003	  8.20662E-003
  2.56000E-001	  5.14388E-003	  5.29228E-003	  5.16639E-003	  5.09240E-003
  2.81600E-001	  2.94986E-003	  3.02907E-003	  3.48749E-003	  2.65358E-003
  3.07200E-001	  1.42221E-003	  1.49884E-003	  2.05164E-003	  1.01230E-003
  3.32800E-001	  5.57400E-004	  7.68896E-004	  1.13603E-003	  3.59965E-004
  3.58400E-001	  1.99293E-004	  5.82018E-005	  5.61355E-004	  3.92707E-004
  3.84000E-001	  1.67342E-004	  6.83498E-005	  6.51360E-004	  1.09883E-004
  4.09600E-001	  2.95608E-005	 -7.02468E-005	  3.04338E-004	 -3.77828E-005
  4.60800E-001	  1.40011E-005	  7.31318E-005	 -1.40851E-004	 -1.29045E-004
  5.12000E-001	 -4.07708E-005	  2.00560E-005	 -2.15925E-004	  4.62227E-005
  5.63200E-001	  9.71083E-005	  1.19035E-005	  8.51267E-005	  1.54722E-004
  6.14400E-001	  4.54654E-004	  5.16573E-004	  2.93950E-004	  5.75086E-004
  6.65600E-001	  3.11046E-004	  4.31090E-004	 -1.09345E-004	  8.64116E-004
  7.16800E-001	 -1.74266E-004	 -3.27839E-004	 -5.85176E-004	  2.98789E-004
  7.68000E-001	 -1.27191E-004	  3.54369E-005	 -4.58092E-004	  1.32712E-004
  8.19200E-001	  4.98701E-005	  1.74322E-004	 -1.23285E-004	  1.62500E-004
  9.21600E-001	  3.79894E-005	 -2.67121E-005	 -1.17766E-004	  5.57035E-005
  1.02400E+000	 -3.32040E-004	 -1.07388E-004	 -3.01477E-004	 -2.73522E-004
  1.12640E+000	  7.50300E-006	 -4.39451E-005	  1.38702E-004	  1.09271E-004
  1.22880E+000	  1.16421E-004	 -1.78396E-004	  1.75109E-004	  3.42785E-004
  1.33120E+000	 -1.71371E-004	 -4.76188E-004	 -3.49157E-004	 -7.64526E-005
  1.43360E+000	  2.09692E-004	  6.96493E-005	 -3.02999E-005	  3.02972E-004
  1.53600E+000	  5.45103E-005	  2.13725E-004	 -5.61123E-005	  5.89908E-005
  1.63840E+000	 -2.32369E-004	 -1.34801E-004	 -3.95295E-004	 -1.42352E-004
  1.84320E+000	  8.37141E-005	  5.84040E-005	 -4.22046E-005	  7.39284E-005
  2.04800E+000	 -1.07262E-004	 -1.55959E-004	 -1.60152E-004	 -1.82634E-005
  2.25280E+000	  1.09598E-004	  1.71165E-004	  5.62173E-005	  2.40214E-004
  2.45760E+000	 -1.02447E-004	 -1.96750E-004	 -1.91154E-005	 -1.54486E-004
  2.66240E+000	  9.66259E-005	  2.60356E-004	  1.42511E-004	  1.09671E-005
  2.86720E+000	 -3.01712E-004	 -2.72259E-004	 -2.16074E-004	 -3.35835E-004
  3.07200E+000	 -3.64500E-004	 -2.47677E-004	 -5.79771E-004	 -3.15863E-004
  3.27680E+000	 -1.49077E-004	 -4.96995E-005	 -1.28457E-004	 -1.87420E-004
  3.68640E+000	 -4.29155E-005	 -1.52659E-004	  6.70200E-005	 -2.55983E-004
  4.09600E+000	  5.38093E-005	  1.91939E-004	  1.89589E-004	 -2.98817E-005
  4.50560E+000	 -7.14791E-005	 -1.27658E-004	 -3.69575E-005	 -6.42394E-005
  4.91520E+000	  2.98458E-004	  3.35494E-004	  3.81577E-004	  1.42999E-004
  5.32480E+000	 -8.28011E-007	 -7.17813E-005	  5.16209E-005	 -1.47639E-004
  5.73440E+000	  2.40514E-004	  2.19382E-004	  1.82810E-004	  3.02202E-004
  6.14400E+000	  5.55637E-004	  5.96963E-004	  5.60095E-004	  5.78978E-004
  6.55360E+000	  8.59271E-005	  1.04661E-004	  1.43663E-004	  3.59975E-005
  7.37280E+000	  1.86616E-004	  2.27380E-004	  1.28449E-004	  2.37364E-004
  8.19200E+000	  2.31907E-004	  1.87139E-004	  1.92080E-004	  2.49575E-004
  9.01120E+000	  2.04636E-004	  1.95775E-004	  2.02490E-004	  2.06294E-004
  9.83040E+000	  7.54002E-005	 -8.32326E-007	  1.25444E-004	  9.86621E-005
  1.06496E+001	  6.76915E-005	  1.43343E-004	  2.29482E-005	  1.50680E-004
  1.14688E+001	 -1.03656E-004	 -6.18445E-005	 -9.85220E-005	 -1.74054E-004
  1.22880E+001	  4.32398E-005	  3.09794E-005	 -5.56654E-006	  1.19850E-004
  1.31072E+001	  1.32246E-004	  1.73284E-004	  1.27152E-004	  1.75826E-004
  1.47456E+001	  2.65442E-004	  2.56518E-004	  1.65489E-004	  2.96038E-004
  1.63840E+001	 -2.51984E-004	 -2.04912E-004	 -2.74979E-004	 -2.24725E-004
  1.80224E+001	 -1.17903E-004	 -1.42830E-004	 -1.61651E-004	 -3.35546E-005
  1.96608E+001	  1.69852E-005	 -5.18412E-005	  4.28054E-005	  4.42142E-006
  2.12992E+001	 -2.03944E-004	 -1.82010E-004	 -2.03365E-004	 -1.68821E-004
  2.29376E+001	 -1.43018E-005	 -1.15394E-005	 -8.04786E-005	  6.93533E-005
  2.45760E+001	  9.61523E-005	  1.44062E-004	  1.45462E-004	  7.55655E-005
  2.62144E+001	  2.21369E-004	  2.15003E-004	  1.89115E-004	  2.30006E-004
  2.94912E+001	  1.45478E-004	  2.05383E-004	  1.00959E-004	  1.85339E-004
  3.27680E+001	 -1.19497E-005	  7.09905E-006	  1.17414E-005	 -4.90945E-005
  3.60448E+001	  8.22913E-005	  7.46205E-005	  1.06442E-004	  8.31449E-005
  3.93216E+001	  1.06067E-004	  1.59585E-004	  5.76229E-005	  9.49779E-005
  4.25984E+001	 -7.18994E-005	 -8.92072E-005	 -4.80562E-005	 -8.17847E-005
  4.58752E+001	  6.18175E-005	  3.61719E-005	  6.17287E-005	  9.38924E-005
  4.91520E+001	 -1.58306E-004	 -1.66843E-004	 -1.14971E-004	 -1.79729E-004
  5.24288E+001	 -5.80933E-005	 -5.54704E-005	 -4.59993E-005	 -5.42601E-005
  5.89824E+001	 -1.10750E-005	  2.13840E-005	 -4.17557E-006	 -1.17568E-005
  6.55360E+001	 -2.51359E-005	 -3.24405E-005	 -2.40859E-005	 -2.52840E-005
  7.20896E+001	  5.94024E-005	  7.39465E-005	  9.03742E-005	  4.73957E-005
  7.86432E+001	 -5.10991E-005	 -5.33004E-005	 -4.09811E-005	 -6.01409E-005
  8.51968E+001	 -1.08541E-004	 -1.18999E-004	 -1.48990E-004	 -6.12443E-005
  9.17504E+001	 -1.29875E-005	  3.33751E-005	 -2.52221E-005	 -1.14108E-005
  9.83040E+001	  4.78675E-005	  1.00761E-004	  4.58068E-005	  3.66700E-005
  1.04858E+002	 -1.06117E-004	 -7.83128E-005	 -1.05115E-004	 -1.11429E-004
  1.17965E+002	 -7.13342E-006	 -7.62426E-007	  3.19304E-006	 -2.41639E-005
  1.31072E+002	  1.62124E-005	  4.82814E-005	  1.02894E-005	 -2.02821E-006
  1.44179E+002	 -2.81254E-005	 -3.11637E-005	 -1.35330E-005	 -4.36359E-005
  1.57286E+002	  4.90258E-005	  5.54170E-005	  5.73923E-005	  3.17255E-005
  1.70394E+002	 -8.10157E-005	 -8.01275E-005	 -9.15939E-005	 -7.99667E-005
  1.83501E+002	  7.65836E-005	  6.39291E-005	  4.78287E-005	  1.03911E-004
  1.96608E+002	 -2.41083E-005	 -2.23591E-005	 -2.42558E-005	 -2.23546E-005
  2.09715E+002	  3.40045E-006	 -1.25846E-005	  2.15429E-006	  6.77328E-007
  2.35930E+002	  2.48886E-005	  2.98142E-005	  2.99582E-005	  2.61042E-005
  2.62144E+002	 -1.85279E-005	 -1.37775E-005	 -1.28532E-005	 -2.50145E-005
  2.88358E+002	 -3.62258E-005	 -4.08234E-005	 -3.30331E-005	 -4.70522E-005
  3.14573E+002	  1.56033E-006	 -6.75205E-006	  7.49283E-006	 -1.32642E-005
  3.40787E+002	 -3.39709E-005	 -3.55831E-005	 -2.09972E-005	 -4.04147E-005
  3.67002E+002	 -5.62883E-005	 -7.41108E-005	 -5.82475E-005	 -5.48811E-005
  3.93216E+002	 -1.08033E-005	 -1.15217E-005	  5.45033E-006	 -1.72488E-005
  4.19430E+002	  2.51889E-005	  7.29254E-006	  3.21168E-005	  2.22510E-005
  4.71859E+002	  4.39513E-005	  3.56977E-005	  3.79378E-005	  5.62626E-005
  5.24288E+002	  1.33045E-005	  8.08312E-006	  1.35462E-005	  1.27820E-005
  5.76717E+002	 -1.89851E-005	 -3.25407E-006	 -2.07137E-005	 -1.86977E-005
  6.29146E+002	 -2.66234E-005	 -1.41974E-005	 -3.68047E-005	 -1.99999E-005
  6.81574E+002	  1.88475E-005	  2.41819E-005	  1.62154E-005	  1.58237E-005
  7.34003E+002	  3.28879E-005	  2.83012E-005	  3.65123E-005	  2.79821E-005
  7.86432E+002	  2.03487E-005	  1.72844E-005	  8.27384E-006	  2.39344E-005
  8.38861E+002	  3.81873E-006	 -1.50398E-006	  2.11921E-006	  5.00228E-006
  9.43718E+002	 -1.28123E-005	 -2.01568E-005	 -1.67780E-005	 -7.28300E-006
  1.04858E+003	 -2.79542E-005	 -2.28038E-005	 -1.90459E-005	 -3.00902E-005
  1.15343E+003	 -4.17794E-006	 -2.89808E-006	  4.14094E-006	 -1.56875E-005
  1.25829E+003	 -1.80893E-005	 -1.94530E-005	 -1.49706E-005	 -1.87671E-005
  1.36315E+003	 -5.77813E-006	 -7.46409E-006	 -1.14822E-005	 -2.44317E-006
  1.46801E+003	  8.00586E-006	 -2.29315E-006	  1.29273E-005	 -9.65977E-007
  1.57286E+003	 -2.52380E-005	 -3.30661E-005	 -3.74969E-005	 -1.12355E-005
  1.67772E+003	 -2.03850E-005	 -2.88495E-005	 -1.87298E-005	 -1.44976E-005
  1.88744E+003	  6.36440E-006	  1.02859E-005	  1.41160E-005	  1.36993E-006
  2.09715E+003	  1.12662E-005	  1.54418E-005	  7.32854E-006	  1.19644E-005
  2.30687E+003	  5.04190E-007	 -4.86775E-006	  5.28211E-006	 -1.96477E-006
  2.51658E+003	  2.03947E-006	 -8.10829E-008	  6.89501E-006	 -3.69837E-006
  2.72630E+003	 -5.29032E-006	 -2.08441E-006	 -7.36636E-006	 -2.08574E-006
  2.93601E+003	  1.58075E-005	  1.33644E-005	  1.95776E-005	  1.12145E-005
  3.14573E+003	 -1.16413E-005	 -1.68630E-005	 -1.21919E-005	 -1.44092E-005
  3.35544E+003	 -2.56923E-005	 -3.11259E-005	 -2.11451E-005	 -3.07427E-005
  3.77487E+003	 -1.69811E-005	 -1.67658E-005	 -2.33144E-005	 -9.78713E-006
  4.19430E+003	  1.75314E-005	  1.73007E-005	  1.94024E-005	  1.51575E-005
  4.61373E+003	 -1.12512E-005	 -1.05670E-005	 -1.14809E-005	 -1.46659E-005
  5.03317E+003	  1.57349E-005	  1.81374E-005	  1.98606E-005	  1.01343E-005
  5.45260E+003	 -9.17791E-007	  1.11332E-006	 -4.90213E-006	  4.74374E-007
  5.87203E+003	 -4.02243E-006	 -2.25163E-006	 -7.44602E-006	 -1.91934E-006
  6.29146E+003	 -5.80570E-006	 -1.54382E-006	 -1.91666E-006	 -8.53223E-006
  6.71089E+003	 -7.47515E-006	 -7.23783E-006	 -7.76320E-006	 -7.73901E-006
  7.54975E+003	 -1.22049E-005	 -1.38439E-005	 -1.15331E-005	 -1.20598E-005
  8.38861E+003	  3.91598E-006	  4.42117E-006	  3.05885E-006	  3.94249E-006
  9.22747E+003	 -1.65082E-005	 -1.44951E-005	 -1.84874E-005	 -1.32310E-005
  1.00663E+004	  2.30755E-006	 -1.19016E-006	  2.41760E-006	  2.98432E-006
  1.09052E+004	  7.37892E-006	  4.12635E-006	  5.21538E-006	  8.31817E-006
  1.17441E+004	 -3.69729E-006	 -6.61207E-006	 -8.69864E-006	 -8.98174E-007

"Count Rate"
       0.23438	     309.79517	     390.72314	     309.79517	     390.72314
       0.46875	     314.79102	     394.60550	     314.79102	     394.60550
       0.70313	     313.64337	     395.90247	     313.64337	     395.90247
       0.93750	     314.50519	     397.65164	     314.50519	     397.65164
       1.17188	     308.27206	     387.71536	     308.27206	     387.71536
       1.40625	     310.12793	     391.46973	     310.12793	     391.46973
       1.64063	     310.76788	     385.07452	     310.76788	     385.07452
       1.87500	     314.25772	     390.74448	     314.25772	     390.74448
       2.10938	     310.29858	     388.97394	     310.29858	     388.97394
       2.34375	     313.37888	     397.37433	     313.37888	     397.37433
       2.57813	     313.96335	     393.33838	     313.96335	     393.33838
       2.81250	     309.84634	     387.34421	     309.84634	     387.34421
       3.04688	     313.45993	     390.25385	     313.45993	     390.25385
       3.28125	     311.64249	     392.87335	     311.64249	     392.87335
       3.51563	     311.49316	     391.58066	     311.49316	     391.58066
       3.75000	     321.15637	     401.94785	     321.15637	     401.94785
       3.98438	     312.36349	     393.31281	     312.36349	     393.31281
       4.21875	     324.38174	     402.14835	     324.38174	     402.14835
       4.45313	     309.65436	     387.03275	     309.65436	     387.03275
       4.68750	     315.28592	     396.06458	     315.28592	     396.06458
       4.92188	     315.12805	     398.54758	     315.12805	     398.54758
       5.15625	     315.50351	     396.61493	     315.50351	     396.61493
       5.39063	     314.28333	     398.79077	     314.28333	     398.79077
       5.62500	     308.50671	     388.39798	     308.50671	     388.39798
       5.85938	     312.18002	     391.91769	     312.18002	     391.91769
       6.09375	     314.76544	     395.75742	     314.76544	     395.75742
       6.32813	     310.85321	     388.23160	     310.85321	     388.23160
       6.56250	     313.84818	     393.69250	     313.84818	     393.69250
       6.79688	     317.98651	     398.73529	     317.98651	     398.73529
       7.03125	     306.79166	     384.49429	     306.79166	     384.49429
       7.26563	     309.01440	     383.77328	     309.01440	     383.77328
       7.50000	     308.89069	     388.46625	     308.89069	     388.46625
       7.73438	     314.76544	     396.00912	     314.76544	     396.00912
       7.96875	     312.84131	     390.91513	     312.84131	     390.91513
       8.20313	     321.73660	     399.40085	     321.73660	     399.40085
       8.43750	     317.03937	     397.06717	     317.03937	     397.06717
       8.67188	     313.09302	     392.54486	     313.09302	     392.54486
       8.90625	     316.80048	     398.51346	     316.80048	     398.51346
       9.14063	     316.76205	     397.31888	     316.76205	     397.31888
       9.37500	     312.25684	     396.38455	     312.25684	     396.38455
       9.60938	     315.94720	     396.87518	     315.94720	     396.87518
       9.84375	     319.96182	     397.88629	     319.96182	     397.88629
      10.07813	     313.82257	     392.07556	     313.82257	     392.07556
      10.31250	     316.63406	     400.81726	     316.63406	     400.81726
      10.54688	     310.26871	     387.32288	     310.26871	     387.32288
      10.78125	     315.29019	     398.75235	     315.29019	     398.75235
      11.01563	     310.12366	     388.91849	     310.12366	     388.91849
      11.25000	     311.56567	     391.93903	     311.56567	     391.93903
      11.48438	     316.39517	     396.93491	     316.39517	     396.93491
      11.71875	     308.25500	     387.13516	     308.25500	     387.13516
      11.95313	     308.22516	     383.82874	     308.22516	     383.82874
      12.18750	     313.63058	     394.67377	     313.63058	     394.67377
      12.42188	     310.33270	     391.20950	     310.33270	     391.20950
      12.65625	     317.53000	     398.67984	     317.53000	     398.67984
      12.89063	     307.15857	     386.16241	     307.15857	     386.16241
      13.12500	     314.58624	     395.14731	     314.58624	     395.14731
      13.35938	     314.94034	     396.03897	     314.94034	     396.03897
      13.59375	     316.37811	     396.73438	     316.37811	     396.73438
      13.82813	     309.90182	     392.12677	     309.90182	     392.12677
      14.06250	     317.73053	     399.03821	     317.73053	     399.03821
      14.29688	     318.07184	     398.87183	     318.07184	     398.87183
      14.53125	     312.97784	     395.16864	     312.97784	     395.16864
      14.76563	     311.77472	     389.04221	     311.77472	     389.04221
      15.00000	     315.36270	     398.74384	     315.36270	     398.74384
      15.23438	     311.33530	     386.50800	     311.33530	     386.50800
      15.46875	     314.23215	     393.33414	     314.23215	     393.33414
      15.70313	     312.33789	     393.95700	     312.33789	     393.95700
      15.93750	     305.97253	     381.35855	     305.97253	     381.35855
      16.17188	     321.16492	     400.92819	     321.16492	     400.92819
      16.40625	     316.52744	     392.90323	     316.52744	     392.90323
      16.64063	     316.15625	     396.61493	     316.15625	     396.61493
      16.87500	     314.00601	     395.35211	     314.00601	     395.35211
      17.10938	     301.42462	     376.93863	     301.42462	     376.93863
      17.34375	     303.35727	     381.91742	     303.35727	     381.91742
      17.57813	     310.31564	     389.69922	     310.31564	     389.69922
      17.81250	     309.85062	     386.45682	     309.85062	     386.45682
      18.04688	     314.90622	     393.96555	     314.90622	     393.96555
      18.28125	     313.14850	     392.82217	     313.14850	     392.82217
      18.51563	     313.33621	     394.25992	     313.33621	     394.25992
      18.75000	     313.16983	     395.07053	     313.16983	     395.07053
      18.98438	     311.20731	     392.08835	     311.20731	     392.08835
      19.21875	     315.28165	     394.07648	     315.28165	     394.07648
      19.45313	     309.77383	     387.24606	     309.77383	     387.24606
      19.68750	     304.96994	     383.20587	     304.96994	     383.20587
      19.92188	     312.29950	     391.87503	     312.29950	     391.87503
      20.15625	     307.06897	     387.28873	     307.06897	     387.28873
      20.39063	     317.27829	     401.49133	     317.27829	     401.49133
      20.62500	     315.35846	     394.72495	     315.35846	     394.72495
      20.85938	     315.59735	     397.04156	     315.59735	     397.04156
      21.09375	     309.13815	     387.20767	     309.13815	     387.20767
      21.32813	     316.54877	     395.24118	     316.54877	     395.24118
      21.56250	     317.58548	     400.79166	     317.58548	     400.79166
      21.79688	     310.29431	     390.01065	     310.29431	     390.01065
      22.03125	     315.13660	     395.97925	     315.13660	     395.97925
      22.26563	     313.03757	     390.44583	     313.03757	     390.44583
      22.50000	     314.81235	     393.67545	     314.81235	     393.67545
      22.73438	     309.18506	     389.51578	     309.18506	     389.51578
      22.96875	     314.27481	     393.55597	     314.27481	     393.55597
      23.20313	     318.38327	     400.47595	     318.38327	     400.47595
      23.43750	     319.03177	     403.47519	     319.03177	     403.47519
      23.67188	     313.12717	     392.30167	     313.12717	     392.30167
      23.90625	     315.48218	     393.64984	     315.48218	     393.64984
      24.14063	     313.24234	     393.10376	     313.24234	     393.10376
      24.37500	     308.66458	     386.23495	     308.66458	     386.23495
      24.60938	     308.37872	     387.42526	     308.37872	     387.42526
      24.84375	     319.71011	     396.89224	     319.71011	     396.89224
      25.07813	     309.09973	     393.54318	     309.09973	     393.54318
      25.31250	     309.08694	     387.68552	     309.08694	     387.68552
      25.54688	     308.30194	     387.20767	     308.30194	     387.20767
      25.78125	     311.77899	     387.63004	     311.77899	     387.63004
      26.01563	     320.29886	     400.94952	     320.29886	     400.94952
      26.25000	     310.51190	     388.30414	     310.51190	     388.30414
      26.48438	     315.80640	     397.06290	     315.80640	     397.06290
      26.71875	     314.78674	     396.78986	     314.78674	     396.78986
      26.95313	     311.89420	     391.96890	     311.89420	     391.96890
      27.18750	     308.46832	     392.23767	     308.46832	     392.23767
      27.42188	     313.16983	     393.40665	     313.16983	     393.40665
      27.65625	     322.83304	     404.17914	     322.83304	     404.17914
      27.89063	     309.08267	     386.32028	     309.08267	     386.32028
      28.12500	     313.72446	     396.16696	     313.72446	     396.16696
      28.35938	     307.26096	     383.78607	     307.26096	     383.78607
      28.59375	     313.91217	     394.33670	     313.91217	     394.33670
      28.82813	     315.22192	     397.17810	     315.22192	     397.17810
      29.06250	     307.04337	     385.55661	     307.04337	     385.55661
      29.29688	     318.19983	     397.29327	     318.19983	     397.29327
      29.53125	     307.72171	     387.68552	     307.72171	     387.68552
      29.76563	     307.75586	     386.24350	     307.75586	     386.24350
      30.00000	     312.02219	     391.83664	     312.02219	     391.83664
      30.23438	     309.59464	     386.73413	     309.59464	     386.73413
      30.46875	     313.33621	     394.45618	     313.33621	     394.45618
      30.70313	     314.37292	     394.02954	     314.37292	     394.02954
      30.93750	     314.78250	     395.53983	     314.78250	     395.53983
      31.17188	     312.47440	     391.98169	     312.47440	     391.98169
      31.40625	     314.98300	     395.11746	     314.98300	     395.11746
      31.64063	     312.12885	     392.26755	     312.12885	     392.26755
      31.87500	     308.69443	     383.60690	     308.69443	     383.60690
      32.10938	     310.13647	     390.91937	     310.13647	     390.91937
      32.34375	     302.61066	     382.08383	     302.61066	     382.08383
      32.57813	     314.67584	     392.70697	     314.67584	     392.70697
      32.81250	     311.90271	     394.02954	     311.90271	     394.02954
      33.04688	     324.15134	     403.85489	     324.15134	     403.85489
      33.28125	     314.13828	     391.60626	     314.13828	     391.60626
      33.51563	     310.72095	     389.08914	     310.72095	     389.08914
      33.75000	     316.09653	     394.16180	     316.09653	     394.16180
      33.98438	     312.14163	     389.79306	     312.14163	     389.79306
      34.21875	     310.88733	     388.45346	     310.88733	     388.45346
      34.45313	     312.70480	     392.96722	     312.70480	     392.96722
      34.68750	     310.70816	     389.87415	     310.70816	     389.87415
      34.92188	     312.35068	     392.99710	     312.35068	     392.99710
      35.15625	     316.66394	     401.35483	     316.66394	     401.35483
      35.39063	     309.11682	     390.58661	     309.11682	     390.58661
      35.62500	     306.77460	     386.31174	     306.77460	     386.31174
      35.85938	     317.33801	     397.54498	     317.33801	     397.54498
      36.09375	     307.38467	     384.62656	     307.38467	     384.62656
      36.32813	     317.79025	     397.25916	     317.79025	     397.25916
      36.56250	     308.15262	     391.40149	     308.15262	     391.40149
      36.79688	     312.11176	     391.88358	     312.11176	     391.88358
      37.03125	     317.28683	     399.31125	     317.28683	     399.31125
      37.26563	     312.55121	     394.05515	     312.55121	     394.05515
      37.50000	     312.35068	     391.77692	     312.35068	     391.77692
      37.73438	     309.40692	     387.66418	     309.40692	     387.66418
      37.96875	     316.45062	     399.49469	     316.45062	     399.49469
      38.20313	     310.34976	     390.99191	     310.34976	     390.99191
      38.43750	     314.11694	     395.16437	     314.11694	     395.16437
      38.67188	     315.34564	     401.42310	     315.34564	     401.42310
      38.90625	     314.50519	     395.85126	     314.50519	     395.85126
      39.14063	     314.79529	     393.44931	     314.79529	     393.44931
      39.37500	     313.13995	     393.44931	     313.13995	     393.44931
      39.60938	     309.96155	     387.97134	     309.96155	     387.97134
      39.84375	     315.98560	     401.47427	     315.98560	     401.47427
      40.07813	     308.70724	     385.68887	     308.70724	     385.68887
      40.31250	     318.61792	     400.35651	     318.61792	     400.35651
      40.54688	     313.11862	     394.10205	     313.11862	     394.10205
      40.78125	     314.59052	     391.88358	     314.59052	     391.88358
      41.01563	     309.86340	     390.96204	     309.86340	     390.96204
      41.25000	     309.33438	     388.91849	     309.33438	     388.91849
      41.48438	     317.89264	     397.02023	     317.89264	     397.02023
      41.71875	     317.42761	     394.95105	     317.42761	     394.95105
      41.95313	     313.17407	     389.46884	     313.17407	     389.46884
      42.18750	     311.10492	     390.08319	     311.10492	     390.08319
      42.42188	     318.05902	     399.13208	     318.05902	     399.13208
      42.65625	     316.38663	     394.57135	     316.38663	     394.57135
      42.89063	     306.56555	     384.52841	     306.56555	     384.52841
      43.12500	     311.61261	     388.90567	     311.61261	     388.90567
      43.35938	     307.82410	     385.97046	     307.82410	     385.97046
      43.59375	     312.96503	     393.53036	     312.96503	     393.53036
      43.82813	     311.98380	     392.42114	     311.98380	     392.42114
      44.06250	     312.38055	     396.58508	     312.38055	     396.58508
      44.29688	     311.33530	     390.39035	     311.33530	     390.39035
      44.53125	     321.76648	     401.00497	     321.76648	     401.00497
      44.76563	     320.90466	     401.97772	     320.90466	     401.97772
      45.00000	     304.93582	     381.08975	     304.93582	     381.08975
      45.23438	     311.12198	     396.12857	     311.12198	     396.12857
      45.46875	     314.10416	     394.04233	     314.10416	     394.04233
      45.70313	     310.92572	     389.50296	     310.92572	     389.50296
      45.93750	     308.11850	     385.58221	     308.11850	     385.58221
      46.17188	     303.76257	     383.35519	     303.76257	     383.35519
      46.40625	     312.36349	     393.56024	     312.36349	     393.56024
      46.64063	     315.89600	     393.93567	     315.89600	     393.93567
      46.87500	     319.54370	     399.81042	     319.54370	     399.81042
      47.10938	     316.48901	     397.57486	     316.48901	     397.57486
      47.34375	     308.11423	     389.37924	     308.11423	     389.37924
      47.57813	     310.22604	     390.66766	     310.22604	     390.66766
      47.81250	     316.69806	     400.48022	     316.69806	     400.48022
      48.04688	     304.39398	     382.63419	     304.39398	     382.63419
      48.28125	     310.65268	     389.66934	     310.65268	     389.66934
      48.51563	     315.52057	     396.15845	     315.52057	     396.15845
      48.75000	     313.34048	     390.03198	     313.34048	     390.03198
      48.98438	     315.43524	     395.68488	     315.43524	     395.68488
      49.21875	     310.32419	     388.35532	     310.32419	     388.35532
      49.45313	     313.84390	     396.66614	     313.84390	     396.66614
      49.68750	     318.95923	     399.97253	     318.95923	     399.97253
      49.92188	     312.81998	     392.03717	     312.81998	     392.03717
      50.15625	     311.04520	     392.88617	     311.04520	     392.88617
      50.39063	     314.83368	     396.89224	     314.83368	     396.89224
      50.62500	     313.79269	     391.54227	     313.79269	     391.54227
      50.85938	     318.33209	     400.00241	     318.33209	     400.00241
      51.09375	     317.49588	     398.92300	     317.49588	     398.92300
      51.32813	     313.18689	     396.29495	     313.18689	     396.29495
      51.56250	     309.36853	     390.86392	     309.36853	     390.86392
      51.79688	     316.53595	     396.77280	     316.53595	     396.77280
      52.03125	     313.77563	     395.91953	     313.77563	     395.91953
      52.26563	     310.89587	     390.13437	     310.89587	     390.13437
      52.50000	     309.81223	     387.97134	     309.81223	     387.97134
      52.73438	     313.35754	     391.31189	     313.35754	     391.31189
      52.96875	     307.42307	     388.95688	     307.42307	     388.95688
      53.20313	     312.86264	     388.71368	     312.86264	     388.71368
      53.43750	     317.92252	     398.24466	     317.92252	     398.24466
      53.67188	     312.23123	     393.24026	     312.23123	     393.24026
      53.90625	     313.56232	     395.02359	     313.56232	     395.02359
      54.14063	     304.69263	     383.90555	     304.69263	     383.90555
      54.37500	     310.14926	     387.42953	     310.14926	     387.42953
      54.60938	     313.27222	     393.23599	     313.27222	     393.23599
      54.84375	     312.25256	     393.25305	     312.25256	     393.25305
      55.07813	     308.28915	     385.66754	     308.28915	     385.66754
      55.31250	     322.57281	     407.53247	     322.57281	     407.53247
      55.54688	     308.08008	     388.09933	     308.08008	     388.09933
      55.78125	     315.26886	     399.78909	     315.26886	     399.78909
      56.01563	     312.87970	     392.25049	     312.87970	     392.25049
      56.25000	     314.41986	     398.39398	     314.41986	     398.39398
      56.48438	     304.42386	     383.62823	     304.42386	     383.62823
      56.71875	     308.05450	     388.00974	     308.05450	     388.00974
      56.95313	     317.25269	     397.95883	     317.25269	     397.95883
      57.18750	     316.67249	     398.50491	     316.67249	     398.50491
      57.42188	     314.89340	     394.12338	     314.89340	     394.12338
      57.65625	     309.51785	     393.34692	     309.51785	     393.34692
      57.89063	     316.62128	     397.27194	     316.62128	     397.27194
      58.12500	     314.29187	     394.86148	     314.29187	     394.86148
      58.35938	     321.90298	     401.94357	     321.90298	     401.94357
      58.59375	     313.88657	     393.76077	     313.88657	     393.76077
      58.82813	     312.18857	     392.84778	     312.18857	     392.84778
      59.06250	     315.37552	     399.31552	     315.37552	     399.31552
      59.29688	     313.82684	     390.65915	     313.82684	     390.65915
      59.53125	     310.50336	     388.65823	     310.50336	     388.65823

Monitor Diode	 452326.36
"StandardDeviation"
  3.12500E-006	  8.59976E-003
  6.25000E-006	  8.59977E-003
  9.37500E-006	  8.59961E-003
  1.25000E-005	  8.59975E-003
  1.56250E-005	  8.59972E-003
  1.87500E-005	  8.59976E-003
  2.18750E-005	  8.59977E-003
  2.50000E-005	  8.59977E-003
  2.81250E-005	  8.59777E-003
  3.12500E-005	  8.59974E-003
  3.43750E-005	  8.54044E-003
  3.75000E-005	  8.59337E-003
  4.06250E-005	  8.58149E-003
  4.37500E-005	  8.59578E-003
  4.68750E-005	  8.59970E-003
  5.00000E-005	  6.09500E-003
  5.62500E-005	  6.07823E-003
  6.25000E-005	  6.08525E-003
  6.87500E-005	  6.06486E-003
  7.50000E-005	  6.07066E-003
  8.12500E-005	  6.08585E-003
  8.75000E-005	  6.07680E-003
  9.37500E-005	  6.07545E-003
  1.00000E-004	  4.31072E-003
  1.12500E-004	  4.32045E-003
  1.25000E-004	  4.31364E-003
  1.37500E-004	  4.31864E-003
  1.50000E-004	  4.31989E-003
  1.62500E-004	  4.30526E-003
  1.75000E-004	  4.31190E-003
  1.87500E-004	  4.31833E-003
  2.00000E-004	  3.07519E-003
  2.25000E-004	  3.07824E-003
  2.50000E-004	  3.07737E-003
  2.75000E-004	  3.07872E-003
  3.00000E-004	  3.07868E-003
  3.25000E-004	  3.07975E-003
  3.50000E-004	  3.07803E-003
  3.75000E-004	  3.07818E-003
  4.00000E-004	  2.21564E-003
  4.50000E-004	  2.21449E-003
  5.00000E-004	  2.21519E-003
  5.50000E-004	  2.21470E-003
  6.00000E-004	  2.21303E-003
  6.50000E-004	  2.21228E-003
  7.00000E-004	  2.21374E-003
  7.50000E-004	  2.21102E-003
  8.00000E-004	  1.61810E-003
  9.00000E-004	  1.61844E-003
  1.00000E-003	  1.61668E-003
  1.10000E-003	  1.61693E-003
  1.20000E-003	  1.61662E-003
  1.30000E-003	  1.61653E-003
  1.40000E-003	  1.61528E-003
  1.50000E-003	  1.61494E-003
  1.60000E-003	  1.21453E-003
  1.80000E-003	  1.21345E-003
  2.00000E-003	  1.21296E-003
  2.20000E-003	  1.21247E-003
  2.40000E-003	  1.21173E-003
  2.60000E-003	  1.21079E-003
  2.80000E-003	  1.21067E-003
  3.00000E-003	  1.20935E-003
  3.20000E-003	  9.48232E-004
  3.60000E-003	  9.46875E-004
  4.00000E-003	  9.45868E-004
  4.40000E-003	  9.45128E-004
  4.80000E-003	  9.43863E-004
  5.20000E-003	  9.42932E-004
  5.60000E-003	  9.41915E-004
  6.00000E-003	  9.40997E-004
  6.40000E-003	  7.78385E-004
  7.20000E-003	  7.76262E-004
  8.00000E-003	  7.74517E-004
  8.80000E-003	  7.72714E-004
  9.60000E-003	  7.70908E-004
  1.04000E-002	  7.69091E-004
  1.12000E-002	  7.67278E-004
  1.20000E-002	  7.65459E-004
  1.28000E-002	  6.69241E-004
  1.44000E-002	  6.65119E-004
  1.60000E-002	  6.61591E-004
  1.76000E-002	  6.58088E-004
  1.92000E-002	  6.54575E-004
  2.08000E-002	  6.51057E-004
  2.24000E-002	  6.47636E-004
  2.40000E-002	  6.44124E-004
  2.56000E-002	  5.87669E-004
  2.88000E-002	  5.79880E-004
  3.20000E-002	  5.73117E-004
  3.52000E-002	  5.66536E-004
  3.84000E-002	  5.59943E-004
  4.16000E-002	  5.53626E-004
  4.48000E-002	  5.47519E-004
  4.80000E-002	  5.41629E-004
  5.12000E-002	  5.06474E-004
  5.76000E-002	  4.94620E-004
  6.40000E-002	  4.84505E-004
  7.04000E-002	  4.75173E-004
  7.68000E-002	  4.66592E-004
  8.32000E-002	  4.58779E-004
  8.96000E-002	  4.51751E-004
  9.60000E-002	  4.45319E-004
  1.02400E-001	  4.21044E-004
  1.15200E-001	  4.10340E-004
  1.28000E-001	  4.01950E-004
  1.40800E-001	  3.95034E-004
  1.53600E-001	  3.89340E-004
  1.66400E-001	  3.84876E-004
  1.79200E-001	  3.81856E-004
  1.92000E-001	  3.79690E-004
  2.04800E-001	  3.52604E-004
  2.30400E-001	  3.52604E-004
  2.56000E-001	  3.52604E-004
  2.81600E-001	  3.52604E-004
  3.07200E-001	  3.52604E-004
  3.32800E-001	  3.52604E-004
  3.58400E-001	  3.52604E-004
  3.84000E-001	  3.52604E-004
  4.09600E-001	  3.25084E-004
  4.60800E-001	  3.25084E-004
  5.12000E-001	  3.25084E-004
  5.63200E-001	  3.25084E-004
  6.14400E-001	  3.25084E-004
  6.65600E-001	  3.25084E-004
  7.16800E-001	  3.25084E-004
  7.68000E-001	  3.25084E-004
  8.19200E-001	  3.05800E-004
  9.21600E-001	  3.05800E-004
  1.02400E+000	  3.05800E-004
  1.12640E+000	  3.05800E-004
  1.22880E+000	  3.05800E-004
  1.33120E+000	  3.05800E-004
  1.43360E+000	  3.05800E-004
  1.53600E+000	  3.05800E-004
  1.63840E+000	  2.61485E-004
  1.84320E+000	  2.61485E-004
  2.04800E+000	  2.61485E-004
  2.25280E+000	  2.61485E-004
  2.45760E+000	  2.61485E-004
  2.66240E+000	  2.61485E-004
  2.86720E+000	  2.61485E-004
  3.07200E+000	  2.61485E-004
  3.27680E+000	  2.08793E-004
  3.68640E+000	  2.08793E-004
  4.09600E+000	  2.08793E-004
  4.50560E+000	  2.08793E-004
  4.91520E+000	  2.08793E-004
  5.32480E+000	  2.08793E-004
  5.73440E+000	  2.08793E-004
  6.14400E+000	  2.08793E-004
  6.55360E+000	  1.57124E-004
  7.37280E+000	  1.57124E-004
  8.19200E+000	  1.57124E-004
  9.01120E+000	  1.57124E-004
  9.83040E+000	  1.57124E-004
  1.06496E+001	  1.57124E-004
  1.14688E+001	  1.57124E-004
  1.22880E+001	  1.57124E-004
  1.31072E+001	  1.14482E-004
  1.47456E+001	  1.14482E-004
  1.63840E+001	  1.14482E-004
  1.80224E+001	  1.14482E-004
  1.96608E+001	  1.14482E-004
  2.12992E+001	  1.14482E-004
  2.29376E+001	  1.14482E-004
  2.45760E+001	  1.14482E-004
  2.62144E+001	  8.21451E-005
  2.94912E+001	  8.21451E-005
  3.27680E+001	  8.21451E-005
  3.60448E+001	  8.21451E-005
  3.93216E+001	  8.21451E-005
  4.25984E+001	  8.21451E-005
  4.58752E+001	  8.21451E-005
  4.91520E+001	  8.21451E-005
  5.24288E+001	  5.85076E-005
  5.89824E+001	  5.85076E-005
  6.55360E+001	  5.85076E-005
  7.20896E+001	  5.85076E-005
  7.86432E+001	  5.85076E-005
  8.51968E+001	  5.85076E-005
  9.17504E+001	  5.85076E-005
  9.83040E+001	  5.85076E-005
  1.04858E+002	  4.15205E-005
  1.17965E+002	  4.15205E-005
  1.31072E+002	  4.15205E-005
  1.44179E+002	  4.15205E-005
  1.57286E+002	  4.15205E-005
  1.70394E+002	  4.15205E-005
  1.83501E+002	  4.15205E-005
  1.96608E+002	  4.15205E-005
  2.09715E+002	  2.94122E-005
  2.35930E+002	  2.94122E-005
  2.62144E+002	  2.94122E-005
  2.88358E+002	  2.94122E-005
  3.14573E+002	  2.94122E-005
  3.40787E+002	  2.94122E-005
  3.67002E+002	  2.94122E-005
  3.93216E+002	  2.94122E-005
  4.19430E+002	  2.08162E-005
  4.71859E+002	  2.08162E-005
  5.24288E+002	  2.08162E-005
  5.76717E+002	  2.08162E-005
  6.29146E+002	  2.08162E-005
  6.81574E+002	  2.08162E-005
  7.34003E+002	  2.08162E-005
  7.86432E+002	  2.08162E-005
  8.38861E+002	  1.47259E-005
  9.43718E+002	  1.47259E-005
  1.04858E+003	  1.47259E-005
  1.15343E+003	  1.47259E-005
  1.25829E+003	  1.47259E-005
  1.36315E+003	  1.47259E-005
  1.46801E+003	  1.47259E-005
  1.57286E+003	  1.47259E-005
  1.67772E+003	  1.04151E-005
  1.88744E+003	  1.04151E-005
  2.09715E+003	  1.04151E-005
  2.30687E+003	  1.04151E-005
  2.51658E+003	  1.04151E-005
  2.72630E+003	  1.04151E-005
  2.93601E+003	  1.04151E-005
  3.14573E+003	  1.04151E-005
  3.35544E+003	  7.36542E-006
  3.77487E+003	  7.36542E-006
  4.19430E+003	  7.36542E-006
  4.61373E+003	  7.36542E-006
  5.03317E+003	  7.36542E-006
  5.45260E+003	  7.36542E-006
  5.87203E+003	  7.36542E-006
  6.29146E+003	  7.36542E-006
  6.71089E+003	  5.20843E-006
  7.54975E+003	  5.20843E-006
  8.38861E+003	  5.20843E-006
  9.22747E+003	  5.20843E-006
  1.00663E+004	  5.20843E-006
  1.09052E+004	  5.20843E-006
  1.17441E+004	  5.20843E-006
